#Wavelength     Flux    Sky Spectrum 
#[Angstrom]   [Counts]     [Counts]
3654.52    36.727028    35.627754
3655.99    57.195316    55.719830
3657.46    15.488670    14.105147
3658.93     1.303086     1.433114
3660.40     7.024395     2.474345
3661.88    -1.913723    -2.737482
3663.35    35.146107    36.179615
3664.82    46.852825    44.312977
3666.29    -3.211767    -3.591858
3667.76     2.897425     4.100180
3669.23    -7.390663    -9.909904
3670.70    31.385418    32.125011
3672.17    -0.892854    -3.497979
3673.64    -9.874719    -9.390921
3675.11     7.388538    10.165037
3676.58     4.091290     6.456480
3678.05    12.739891     9.499475
3679.52    19.498758    22.082556
3680.99    -37.719116    -38.815918
3682.46    -11.722198    -13.385929
3683.93    15.489830     9.327871
3685.40    42.535988    43.601627
3686.87    59.276115    59.541260
3688.35    16.980101    12.289735
3689.82    -11.483577    -11.284003
3691.29     0.282725    -3.422955
3692.76    37.251431    34.407829
3694.23    19.184839    22.170809
3695.70    16.241028    10.818868
3697.17    11.348771     7.487993
3698.64     1.321444     1.829321
3700.11    21.637968    23.718231
3701.58    49.345913    55.088436
3703.05    21.432127    20.338488
3704.52    17.411230    13.315260
3705.99    11.650701     7.288321
3707.46    -4.018461    -5.543540
3708.93    -0.372595     1.853799
3710.40    50.832668    56.344009
3711.87    16.632036    17.185249
3713.34    26.697657    27.289650
3714.82    15.570608     7.315310
3716.29     6.963558     4.517922
3717.76    21.972780    25.529030
3719.23    38.600842    35.900135
3720.70     8.702445    13.303229
3722.17    11.508870    13.722128
3723.64     4.725680     4.445307
3725.11     1.165105    -0.748069
3726.58    21.333227    21.802658
3728.05    14.765590     9.350536
3729.52    55.129360    50.775475
3730.99    15.094660    16.714243
3732.46    20.680212    22.998838
3733.93    19.152416    13.015619
3735.40    -1.742574    -24.166908
3736.87    16.169493    15.851811
3738.34    32.141460    34.882641
3739.81    -3.449193    -3.778063
3741.29    -4.113655    -5.489322
3742.76    -42.600609    -41.474369
3744.23    43.811840    45.888805
3745.70    38.441059    35.724472
3747.17    17.480469    25.743948
3748.64    46.537125    44.542301
3750.11    -0.658587     3.013243
3751.58    -15.828833    -19.251137
3753.05    31.530483    29.672304
3754.52    30.604025    28.412901
3755.99     5.458524    11.303371
3757.46    39.566647    44.454891
3758.93    -2.048118     3.080008
3760.40    -33.059258    -34.917633
3761.87     9.772058     3.465230
3763.34    46.199230    50.289307
3764.81    17.486263    23.500586
3766.28    28.178850    29.292204
3767.75    -1.219685     3.647679
3769.23    -9.799485    -15.103527
3770.70    18.414249    14.585515
3772.17     3.308530     0.790690
3773.64    14.839171    20.783543
3775.11    31.413916    33.563217
3776.58    32.318783    25.196125
3778.05    30.398651    33.204250
3779.52     6.360374    16.748795
3780.99    11.581224    11.499141
3782.46    10.299276     8.877940
3783.93    40.750423    41.896275
3785.40    63.643337    59.733139
3786.87    25.019444    26.552547
3788.34    10.511324     9.858461
3789.81    33.231354    34.531254
3791.28    20.616219    12.708107
3792.75    -9.419785    -19.216118
3794.22     7.212932     8.350487
3795.70    23.041710    20.294941
3797.17    16.043434    17.010723
3798.64    24.289913    22.748844
3800.11    12.931972     9.667435
3801.58    60.140926    61.781315
3803.05     3.069055     2.686049
3804.52    -15.445391    -16.950039
3805.99    44.065899    42.812500
3807.46     3.046617    -0.901576
3808.93    45.301704    38.736591
3810.40    16.142254    17.702301
3811.87    16.830072     7.477731
3813.34    22.435041    20.615442
3814.81    16.303831     9.752651
3816.28    29.745958    10.898655
3817.75     0.782183     9.725537
3819.22    -15.334290    -27.826607
3820.69    34.756760    26.764204
3822.17    15.545102    13.739391
3823.64    35.840557    41.542042
3825.11    27.126196    16.477598
3826.58    23.703423    24.825535
3828.05    75.310631    66.954987
3829.52    47.498203    44.458572
3830.99    21.258938    29.546730
3832.46    23.665194     1.965443
3833.93    81.123978    89.240181
3835.40    30.043547    36.900925
3836.87    37.407627    30.284206
3838.34    16.572287     5.109984
3839.81    58.310158    58.852058
3841.28    23.855097    25.302866
3842.75    34.081615    18.393499
3844.22    60.692249    55.130199
3845.69    51.946136    49.682949
3847.16    13.193439     8.160899
3848.63    27.029253     8.274317
3850.11    44.059158    33.402508
3851.58    19.961708    18.932423
3853.05    31.685472    23.201227
3854.52    54.887470    54.833256
3855.99    34.035900    42.006454
3857.46    30.029970    29.487074
3858.93    14.056252    13.004077
3860.40    26.733309    20.325575
3861.87    22.826605    19.151417
3863.34    26.148415    27.893005
3864.81    28.339775    15.458220
3866.28    23.434797    23.564041
3867.75     4.622817     0.198470
3869.22    43.312641    45.460262
3870.69    70.543846    74.110374
3872.16    23.838520    24.920919
3873.63    27.293545    25.456190
3875.10    34.567444    45.891605
3876.58    27.089975    36.759823
3878.05    -1.461135    -15.836623
3879.52    13.588460    -3.204321
3880.99    42.040520    45.025150
3882.46    35.485924    32.100113
3883.93    26.212984    19.090679
3885.40    62.539371    61.362671
3886.87    35.548443    46.465549
3888.34    38.612637    43.793488
3889.81    64.866119    72.202568
3891.28     6.140409    -0.300746
3892.75    30.795752    33.179054
3894.22    41.676083    44.745705
3895.69    58.174149    46.371048
3897.16    38.759079    37.541298
3898.63    49.371136    42.866959
3900.10    40.409088    32.917728
3901.57    30.843540    32.718933
3903.05     8.435214    -2.660306
3904.52    67.778389    57.518002
3905.99    62.209087    61.570488
3907.46    84.207184    83.227798
3908.93    18.295174     2.516309
3910.40    32.785496    36.941536
3911.87    33.874504    32.054482
3913.34    49.579002    42.394753
3914.81    40.389385    35.892353
3916.28    28.649357    26.344162
3917.75    20.091696    32.743488
3919.22    23.703207    11.953691
3920.69     3.167301     7.493667
3922.16    54.890266    52.751217
3923.63    30.812132    30.340635
3925.10     8.249222    -7.649471
3926.57    29.402767    24.049309
3928.04    44.161148    53.407074
3929.52    -16.688995    -3.306359
3930.99    41.808243    37.353836
3932.46    14.200617    14.761323
3933.93    59.477112    50.434071
3935.40    50.821735    44.321453
3936.87    23.448322    24.105984
3938.34    31.455996    33.907871
3939.81    47.908192    43.090725
3941.28     6.320443    -11.151963
3942.75     2.912693     4.332921
3944.22    18.300293    17.008520
3945.69    28.841312    10.660404
3947.16    45.943260    41.359138
3948.63    73.270271    69.592369
3950.10    55.864235    58.834606
3951.57    27.372292    21.441196
3953.04    32.739429    32.266636
3954.51    32.674938    28.109253
3955.98    18.619453     7.678621
3957.46    62.159485    64.741791
3958.93    70.630699    64.618584
3960.40    41.788395    27.975466
3961.87    38.770332    51.457039
3963.34    45.866261    49.444832
3964.81    40.031021    31.442724
3966.28    57.273842    51.134289
3967.75    63.661217    66.871063
3969.22    60.806297    62.803417
3970.69    28.794214    31.640165
3972.16    35.621387    33.313198
3973.63    49.373562    45.917515
3975.10    32.927914    37.747021
3976.57    36.160736    40.894897
3978.04    29.882338    24.713552
3979.51    62.673393    70.293243
3980.98    58.410908    52.641907
3982.45    24.540234    11.275716
3983.93     7.990760     1.497521
3985.40    23.248882    24.537033
3986.87    45.059895    46.849083
3988.34    21.434040    14.578815
3989.81    39.891914    36.976128
3991.28    41.969234    51.759220
3992.75    53.960480    58.565041
3994.22    30.326384    21.325180
3995.69    19.757175    23.448591
3997.16    23.086452    21.894737
3998.63    22.271980    16.102686
4000.10    46.709507    51.537735
4001.57    11.142222     1.967803
4003.04    38.608624    47.616516
4004.51    35.629349    38.327717
4005.98     7.779682    14.988314
4007.45    29.094498    24.416325
4008.92    10.226269    23.767372
4010.40     1.472033    -4.170187
4011.87    59.135269    52.393372
4013.34    15.683430    10.972097
4014.81    13.221005    17.258825
4016.28    30.526344    41.198380
4017.75    27.823759    37.327881
4019.22    26.168314    27.743414
4020.69    36.220264    10.301127
4022.16    33.783092    21.288734
4023.63    31.260019    21.671312
4025.10    21.145916    34.491539
4026.57    52.633678    60.562939
4028.04    39.933048    34.986168
4029.51    52.092541    48.254974
4030.98    53.381611    51.633575
4032.45    47.137669    80.757164
4033.92    23.904379    23.334003
4035.39    42.795818    51.211765
4036.87    14.046058    17.363869
4038.34    38.595734    34.111973
4039.81    19.129175    13.677135
4041.28    47.629913    43.584160
4042.75    41.997593    46.508327
4044.22    62.263618    59.216305
4045.69    48.798317    44.033546
4047.16    17.305065    11.452366
4048.63    27.883545    18.401060
4050.10    -3.232279    -7.802898
4051.57    53.293823    55.476719
4053.04    57.626812    56.337410
4054.51    48.427666    37.737961
4055.98    55.594696    68.946243
4057.45    22.785402    33.239147
4058.92     6.990992     2.620829
4060.39    50.082996    43.618755
4061.86    55.595753    60.305740
4063.33    40.122478    29.233643
4064.81    52.186806    42.186199
4066.28    16.537247     9.998963
4067.75    16.494993    11.132302
4069.22    37.200562    26.254642
4070.69    23.345274    22.187267
4072.16    30.397055    33.040882
4073.63    42.406925    34.316158
4075.10     9.405079     3.512480
4076.57    34.550716    35.392742
4078.04    62.868324    70.268036
4079.51    70.358505    71.398849
4080.98    60.415913    52.482632
4082.45    51.400097    45.235519
4083.92    57.027885    50.655933
4085.39    64.028633    75.579071
4086.86    51.058918    60.596172
4088.33    59.422905    63.422161
4089.80    60.735943    63.212265
4091.28    47.692707    43.191017
4092.75    63.117062    60.961468
4094.22    79.515724    82.534698
4095.69    52.584053    37.897083
4097.16    55.960819    48.960022
4098.63    62.662167    64.158211
4100.10    42.750149    17.985670
4101.57    28.971188    34.760635
4103.04    50.465271    49.527195
4104.51    58.614861    40.830860
4105.98    11.612382    -0.033426
4107.45    62.984135    70.924507
4108.92    45.048450    39.093060
4110.39    46.610439    27.997490
4111.86    43.834850    40.782738
4113.33    54.432499    42.425613
4114.80    73.042198    71.029854
4116.27    43.660740    31.421139
4117.75    20.736719    12.272377
4119.22    42.507015    50.992847
4120.69    31.316820    40.110020
4122.16    53.119259    61.479450
4123.63    41.654354    40.286888
4125.10     9.314596     4.576617
4126.57     0.171493     0.572909
4128.04    41.007786    39.146008
4129.51    51.771156    27.747181
4130.98    40.210728    40.636120
4132.45    54.131989    58.049656
4133.92    28.114784    31.080070
4135.39    58.537594    44.061131
4136.86    49.857597    57.813877
4138.33    62.574497    52.229549
4139.80    69.039650    65.252884
4141.27    71.910606    82.519608
4142.74    78.456070    79.743347
4144.22    84.457443    81.967262
4145.69    56.733860    51.068703
4147.16    89.654076    92.354774
4148.63    48.961437    47.379017
4150.10    48.236702    40.504189
4151.57    31.754938    16.957680
4153.04    69.397598    81.129066
4154.51    64.774727    50.030579
4155.98    42.948734    51.051117
4157.45     2.123161    -1.503615
4158.92    29.874352    34.032482
4160.39    49.547359    50.788399
4161.86    33.698090    31.916616
4163.33    -14.470087    -27.275732
4164.80    68.235245    67.374733
4166.27    27.146631    27.000376
4167.74    59.917252    48.006195
4169.21    54.113964    56.278378
4170.68    61.808601    73.615311
4172.16    68.440636    48.175083
4173.63    62.469830    53.371357
4175.10    83.598289    66.673233
4176.57    82.539856    72.977112
4178.04    75.431862    67.241928
4179.51    89.497307    97.232025
4180.98    104.485611    105.920944
4182.45    84.770508    78.987457
4183.92    90.558578    97.363228
4185.39    134.655685    133.235092
4186.86    114.734291    105.267418
4188.33    107.108521    113.796570
4189.80    81.359947    67.546890
4191.27    101.857445    96.632835
4192.74    102.412903    87.962280
4194.21    118.977631    110.641846
4195.68    115.961784    109.271805
4197.15    95.712395    101.588341
4198.63    113.792519    116.071648
4200.10    93.490135    92.739944
4201.57    89.773064    82.713120
4203.04    89.821930    90.862747
4204.51    100.834053    115.892090
4205.98    101.528419    106.459030
4207.45    96.591133    96.394424
4208.92    94.015167    79.033394
4210.39    77.781143    68.989212
4211.86    94.684479    105.744888
4213.33    124.939598    135.903809
4214.80    112.559631    101.818451
4216.27    106.073318    101.507477
4217.74    108.723061    115.155937
4219.21    111.954948    92.285759
4220.68    110.610397    103.490601
4222.15    90.609718    83.618469
4223.62    88.198242    88.108086
4225.10    105.059441    104.322845
4226.57    106.363838    98.015068
4228.04    82.833694    97.151474
4229.51    74.742439    90.521507
4230.98    87.354790    89.784378
4232.45    96.661934    84.285797
4233.92    83.562042    82.504158
4235.39    102.363037    81.304436
4236.86    114.986847    116.327866
4238.33    103.427116    111.798256
4239.80    97.256927    92.052666
4241.27    84.722633    99.128830
4242.74    125.032471    114.937042
4244.21    89.994926    72.598030
4245.68    106.810181    94.042969
4247.15    96.251404    113.232452
4248.62    94.749161    99.331963
4250.09    80.225067    90.118637
4251.57    125.413536    142.939621
4253.04    109.398033    106.613403
4254.51    86.410004    88.290810
4255.98    115.198143    89.282860
4257.45    79.282814    77.073952
4258.92    78.641258    79.178001
4260.39    127.470444    123.665527
4261.86    31.904413    32.625950
4263.33    74.295334    66.660088
4264.80    106.157593    94.128349
4266.27    94.119598    96.582008
4267.74    108.796661    93.550484
4269.21    107.754395    105.993660
4270.68    118.845551    98.962105
4272.15    122.557266    121.811188
4273.62    109.366425    109.801430
4275.09    117.841400    147.736465
4276.56    132.564697    120.576508
4278.03    131.451263    122.150368
4279.51    112.472084    110.223610
4280.98    142.698532    150.587921
4282.45    83.022568    89.777702
4283.92    112.675140    117.254913
4285.39    127.061066    132.190247
4286.86    103.821465    104.550476
4288.33    162.519836    166.639404
4289.80    128.948807    129.948578
4291.27    107.611336    111.563156
4292.74    121.520035    124.225372
4294.21    119.607437    123.963882
4295.68    114.348114    132.709427
4297.15    109.902374    99.499237
4298.62    102.797424    86.883469
4300.09    86.009811    95.941521
4301.56    140.619614    126.239265
4303.03    84.593002    87.023338
4304.50    105.160194    95.934410
4305.98    90.126541    101.169815
4307.45    105.568382    109.603165
4308.92    82.186508    84.357292
4310.39    153.199005    145.603897
4311.86    124.489616    88.543701
4313.33    128.519058    129.587860
4314.80    110.635551    128.953201
4316.27    115.877525    82.493286
4317.74    101.891396    83.222107
4319.21    97.053055    97.398933
4320.68    114.802269    103.966164
4322.15    149.701660    169.068146
4323.62    96.738731    103.875725
4325.09    122.358086    123.564384
4326.56    115.538925    109.128059
4328.03    111.934952    109.610680
4329.50    103.661774    94.239861
4330.97    145.317902    150.198730
4332.45    81.055183    85.738449
4333.92    97.453255    102.356064
4335.39    119.970940    129.013077
4336.86    96.161110    80.261322
4338.33    112.016136    106.350983
4339.80    127.591866    129.980850
4341.27    130.783752    132.188873
4342.74    134.398483    132.269974
4344.21    97.153130    87.575005
4345.68    95.499458    91.289940
4347.15    122.167923    115.328796
4348.62    134.502853    126.805122
4350.09    121.896126    125.321724
4351.56    100.818558    94.840172
4353.03    99.461128    103.754288
4354.50    96.665619    89.791565
4355.97    130.038651    118.192085
4357.44    146.068649    147.554474
4358.91    87.678848    85.570297
4360.39    134.325333    149.838028
4361.86    125.490402    129.514313
4363.33    123.818275    130.455765
4364.80    130.168411    137.990433
4366.27    121.933014    132.691727
4367.74    110.095932    109.647583
4369.21    143.476563    138.869995
4370.68    136.704208    137.848938
4372.15    125.083832    124.539940
4373.62    132.662689    146.226547
4375.09    124.088852    145.983276
4376.56    105.804054    117.835129
4378.03    98.597527    93.108635
4379.50    114.192741    98.939163
4380.97    146.113205    154.755630
4382.44    133.248306    140.614258
4383.91    113.844078    124.295715
4385.38    122.096680    104.561569
4386.86    105.315903    88.341576
4388.33    102.570625    115.761436
4389.80    104.945282    102.297020
4391.27    113.603882    109.726936
4392.74    139.163147    146.105942
4394.21    118.343994    118.522041
4395.68    104.737778    101.210587
4397.15    85.010490    82.733444
4398.62    125.108627    119.987671
4400.09    124.017509    131.073364
4401.56    121.274254    124.831627
4403.03    101.419258    110.887955
4404.50    89.810387    106.140648
4405.97    80.307449    61.973080
4407.44    140.131073    125.157951
4408.91    124.358528    110.410492
4410.38    110.687317    103.839249
4411.85    110.708015    100.304298
4413.33    138.863815    128.653351
4414.80    122.829483    118.975288
4416.27    135.569397    135.471725
4417.74    139.205246    144.332718
4419.21    123.339241    104.145798
4420.68    155.707275    162.933197
4422.15    149.812225    166.150970
4423.62    137.715149    155.103546
4425.09    151.152954    138.699341
4426.56    132.390854    116.099838
4428.03    130.373642    106.750328
4429.50    138.428268    156.302795
4430.97    129.151978    126.319321
4432.44    132.165207    141.016541
4433.91    131.942520    119.818428
4435.38    81.267899    78.635750
4436.85    112.936920    122.419350
4438.32    126.128891    124.665482
4439.80    122.109879    125.498528
4441.27    160.135208    149.025009
4442.74    145.145584    152.688660
4444.21    126.445915    131.181107
4445.68    133.031952    132.012985
4447.15    173.394897    180.596634
4448.62    123.494904    141.214111
4450.09    103.721588    84.149704
4451.56    146.481354    144.803162
4453.03    139.287262    136.576553
4454.50    163.333282    167.119049
4455.97    153.211166    168.632980
4457.44    124.974045    133.008957
4458.91    157.049026    154.668259
4460.38    91.976494    65.967751
4461.85    134.936157    130.525848
4463.32    149.879669    148.916367
4464.79    134.276718    120.780075
4466.26    93.147659    88.198624
4467.74    127.104935    129.763290
4469.21    140.179428    141.211868
4470.68    159.801407    160.055740
4472.15    158.862823    153.943726
4473.62    139.915909    147.526550
4475.09    154.347870    148.806030
4476.56    124.524086    130.772156
4478.03    112.990746    94.365936
4479.50    113.561584    118.913101
4480.97    130.777206    137.789886
4482.44    128.286484    125.852631
4483.91    118.382614    123.702187
4485.38    121.498741    87.958450
4486.85    153.602142    163.667343
4488.32    138.886292    130.736938
4489.79    127.237007    110.720322
4491.26    171.673431    163.137405
4492.73    134.870682    133.926407
4494.21    209.238510    205.179886
4495.68    112.499718    101.695251
4497.15    138.592758    151.991837
4498.62    114.188583    127.889084
4500.09    125.192230    148.023071
