#Wavelength     Flux    Sky Spectrum 
#[Angstrom]   [Counts]     [Counts]
4609.56    77.256874    42.445557
4610.76    87.048264    37.975704
4611.96    80.361252    25.739759
4613.16    67.107376    33.282593
4614.36    67.672768    31.185242
4615.56    82.940552    33.099308
4616.76    82.526062    38.383053
4617.96    60.476189    37.079639
4619.16    64.203674    41.750580
4620.36    81.845383    38.102737
4621.56    85.747963    37.433460
4622.75    68.992462    42.694851
4623.95    56.802612    42.046421
4625.15    76.094193    41.177208
4626.35    75.430252    40.087048
4627.55    74.859360    35.164227
4628.75    81.670090    29.442533
4629.95    65.389389    32.233711
4631.15    77.281387    41.904617
4632.35    85.141258    33.879524
4633.55    78.033272    28.096272
4634.75    80.768074    36.340279
4635.95    95.119049    31.587870
4637.15    79.143593    31.431280
4638.35    74.301056    35.624668
4639.55    75.523506    39.063705
4640.75    72.396088    41.179073
4641.95    98.290184    41.392887
4643.15    99.150154    36.242844
4644.35    85.135437    28.053679
4645.55    88.226768    23.086100
4646.75    103.704422    24.264988
4647.95    99.738243    30.227980
4649.15    89.519554    43.068325
4650.35    86.675179    43.502045
4651.55    92.648643    30.262917
4652.75    99.302200    23.080074
4653.95    94.579285    30.682976
4655.15    73.265068    34.184849
4656.35    67.056129    25.747011
4657.54    70.841026    21.926405
4658.74    70.724472    30.740116
4659.94    80.970680    32.548676
4661.14    73.150337    26.068644
4662.34    92.855408    19.958033
4663.54    95.064613    26.449133
4664.74    60.728794    34.634232
4665.94    75.694099    26.582901
4667.14    71.962250    42.829403
4668.34    90.619553    45.184906
4669.54    104.580658    36.458363
4670.74    80.485428    40.923512
4671.94    71.534439    44.119278
4673.14    81.883240    39.125420
4674.34    72.383316    34.107605
4675.54    91.704086    32.480549
4676.74    118.868103    25.501022
4677.94    77.177902    14.031746
4679.14    81.287117    24.301596
4680.34    100.019241    31.922903
4681.54    95.421715    28.799196
4682.74    85.753563    25.936523
4683.94    94.092911    30.078245
4685.14    98.757980    35.324528
4686.34    105.554047    28.311468
4687.54    97.117546    22.070089
4688.74    82.495255    23.782970
4689.94    86.746414    27.341017
4691.14    97.114487    33.013710
4692.33    96.646828    37.687897
4693.53    89.961761    31.817198
4694.73    91.053703    24.582582
4695.93    94.423645    25.070194
4697.13    84.610489    26.529982
4698.33    84.915886    33.546444
4699.53    92.198685    28.924263
4700.73    103.801949    26.046530
4701.93    102.729218    36.536270
4703.13    88.913940    42.036968
4704.33    111.225662    32.768738
4705.53    86.134834    31.618126
4706.73    56.373466    35.898956
4707.93    72.497406    39.174465
4709.13    108.529259    36.029240
4710.33    126.624298    18.378075
4711.53    100.207428    21.717829
4712.73    105.042908    29.568308
4713.93    117.263771    32.206097
4715.13    91.942558    35.352482
4716.33    80.751862    36.857479
4717.53    93.841949    37.843952
4718.73    102.300446    26.483839
4719.93    103.845604    24.587191
4721.13    97.556206    38.160942
4722.33    87.105713    41.864208
4723.53    95.317299    34.434738
4724.73    64.160522    38.525276
4725.93    67.371773    36.077209
4727.12    110.788368    26.614500
4728.32    125.768143    24.959719
4729.52    109.147018    25.750679
4730.72    89.642860    29.750759
4731.92    90.651260    32.352890
4733.12    115.880608    30.818642
4734.32    133.394257    28.959745
4735.52    114.690788    34.124374
4736.72    95.247147    44.681759
4737.92    105.999596    37.981613
4739.12    99.546967    38.179489
4740.32    80.893448    46.453663
4741.52    93.935127    40.659843
4742.72    112.526665    28.764519
4743.92    87.663857    28.314661
4745.12    82.255226    38.509846
4746.32    109.445908    40.539070
4747.52    120.459694    34.265488
4748.72    98.835365    36.025681
4749.92    89.922791    37.402847
4751.12    93.915047    34.382534
4752.32    108.043221    40.143028
4753.52    112.196434    46.251053
4754.72    108.058342    40.188633
4755.92    120.574387    37.670807
4757.12    97.261429    43.498665
4758.32    100.411644    39.198891
4759.52    111.827835    31.882786
4760.71    104.011681    34.161697
4761.91    118.526917    36.956326
4763.11    150.095261    30.621576
4764.31    112.024384    33.578468
4765.51    98.528915    40.235168
4766.71    105.644562    40.045200
4767.91    84.591263    38.244312
4769.11    104.049957    40.372887
4770.31    115.123039    30.439043
4771.51    112.286621    28.609762
4772.71    108.950798    28.616131
4773.91    103.754326    28.376644
4775.11    92.755043    34.982773
4776.31    91.427559    28.448261
4777.51    103.627396    34.039330
4778.71    105.016769    39.719681
4779.91    98.827309    34.095333
4781.11    98.847961    30.425650
4782.31    97.814240    39.330971
4783.51    107.488144    43.354164
4784.71    132.592194    34.888920
4785.91    120.300171    31.644640
4787.11    91.912918    36.923531
4788.31    108.827354    36.960564
4789.51    117.949379    34.921387
4790.71    113.414024    29.114742
4791.91    97.176201    37.965965
4793.11    95.965096    41.540287
4794.31    115.489357    27.428364
4795.50    117.609039    26.758085
4796.70    105.951958    30.654398
4797.90    123.199593    30.671499
4799.10    121.456055    42.542618
4800.30    99.527740    44.945869
4801.50    109.809906    20.172651
4802.70    119.581367    24.153313
4803.90    120.377846    40.379810
4805.10    142.076904    30.756392
4806.30    153.103683    19.560198
4807.50    133.285019    27.878246
4808.70    125.371613    27.950180
4809.90    117.018494    32.387096
4811.10    118.956253    36.972649
4812.30    126.538910    38.316742
4813.50    134.832886    35.787945
4814.70    138.568100    31.925396
4815.90    124.471443    32.289528
4817.10    126.143372    26.730108
4818.30    138.904449    17.178125
4819.50    144.903412    16.917719
4820.70    148.561813    24.924770
4821.90    160.617935    25.144051
4823.10    158.095840    22.731155
4824.30    138.349152    26.348656
4825.50    118.882927    26.983265
4826.70    129.871552    23.539082
4827.90    152.682495    24.010273
4829.10    122.136337    25.086149
4830.29    119.810394    32.922714
4831.49    127.607689    29.358101
4832.69    127.491928    21.558538
4833.89    133.263947    24.810719
4835.09    138.185608    28.888565
4836.29    127.553818    28.411247
4837.49    114.355209    28.138870
4838.69    120.171692    33.210102
4839.89    135.813004    35.072121
4841.09    133.579636    27.834646
4842.29    120.369141    27.030005
4843.49    131.613846    25.128531
4844.69    151.149918    23.389982
4845.89    148.425339    24.719063
4847.09    138.634247    23.199963
4848.29    153.441574    16.919750
4849.49    142.598694    25.045641
4850.69    122.814987    29.235575
4851.89    141.109070    24.689970
4853.09    159.557877    25.325146
4854.29    129.038544    31.998615
4855.49    140.973999    26.238512
4856.69    152.422333    25.531528
4857.89    136.425537    27.373079
4859.09    127.588081    22.867519
4860.29    142.789124    16.763332
4861.49    139.520493    17.713877
4862.69    129.908371    19.430271
4863.89    132.720825    25.861423
4865.08    137.213730    30.861847
4866.28    130.480820    31.402760
4867.48    124.042717    34.060905
4868.68    131.008606    28.457163
4869.88    150.079514    21.186520
4871.08    144.733932    21.170914
4872.28    126.351440    22.457047
4873.48    126.836082    19.003532
4874.68    116.268173    21.485088
4875.88    157.387466    15.173965
4877.08    155.888046    26.338804
4878.28    133.626907    35.138851
4879.48    156.355057    17.994360
4880.68    140.017670    18.384253
4881.88    149.868057    20.572004
4883.08    134.611801    22.527550
4884.28    123.210037    24.474619
4885.48    138.683121    28.147833
4886.68    120.728287    35.800545
4887.88    127.338341    32.294765
4889.08    133.164703    25.938616
4890.28    146.530914    23.237621
4891.48    159.285126    24.720917
4892.68    142.169113    27.016312
4893.88    139.439606    24.349195
4895.08    138.893387    31.657560
4896.28    131.779358    27.049740
4897.48    130.301407    16.263378
4898.68    138.171463    23.319187
4899.87    139.568909    26.816519
4901.07    150.224579    27.572739
4902.27    126.759262    28.883366
4903.47    111.902527    30.399084
4904.67    147.678619    29.775249
4905.87    157.849823    25.700272
4907.07    155.797882    22.565647
4908.27    129.524139    30.339138
4909.47    133.409576    33.825184
4910.67    172.134552    25.116154
4911.87    165.704681    22.327570
4913.07    186.035080    17.338760
4914.27    181.971207    16.014647
4915.47    163.348511    19.911013
4916.67    158.306625    24.834688
4917.87    144.630692    27.105043
4919.07    146.434769    23.850370
4920.27    175.279037    28.471561
4921.47    179.483307    29.228481
4922.67    175.814972    22.067902
4923.87    211.627075    22.875261
4925.07    189.974258    25.540205
4926.27    177.512131    20.526533
4927.47    179.404449    21.703100
4928.67    175.738541    26.932188
4929.87    177.002716    23.000072
4931.07    169.037506    27.950775
4932.27    138.486862    28.036777
4933.47    134.475449    27.945650
4934.66    160.325226    29.884800
4935.86    169.010147    26.988268
4937.06    166.866928    27.669468
4938.26    156.309219    35.501469
4939.46    145.002914    39.849216
4940.66    155.547882    33.417755
4941.86    182.145081    24.959114
4943.06    178.513031    27.403126
4944.26    199.405136    26.638632
4945.46    188.553909    24.214827
4946.66    164.539749    23.836823
4947.86    181.951721    24.035275
4949.06    159.531952    26.855879
4950.26    179.611481    24.812107
4951.46    193.161163    22.204414
4952.66    175.902771    23.704292
4953.86    170.891708    29.102427
4955.06    165.376709    35.690102
4956.26    201.268524    25.343273
4957.46    189.032654    20.669483
4958.66    159.245407    28.578671
4959.86    194.002853    29.999678
4961.06    175.192993    27.814785
4962.26    205.844879    25.084110
4963.46    204.497589    29.502840
4964.66    162.526245    33.674908
4965.86    188.270508    27.110743
4967.06    215.350952    25.445845
4968.26    208.325836    27.879129
4969.45    197.700241    26.479750
4970.65    187.159592    27.462284
4971.85    165.872406    36.823338
4973.05    193.568436    33.115837
4974.25    212.505646    28.388712
4975.45    178.660355    25.541273
4976.65    147.450775    28.895351
4977.85    183.030258    39.993145
4979.05    201.124710    28.623692
4980.25    203.311981    21.768631
4981.45    211.406967    23.019381
4982.65    210.658981    26.212698
4983.85    184.771683    35.918118
4985.05    188.788803    27.152252
4986.25    201.265808    22.773167
4987.45    211.485275    35.879417
4988.65    216.196030    42.118225
4989.85    190.328949    23.837564
4991.05    160.665802    35.962242
4992.25    183.745010    37.289371
4993.45    215.716904    22.852150
4994.65    197.425735    25.063875
4995.85    186.794373    24.766815
4997.05    183.767410    27.834101
4998.25    173.239227    24.702703
4999.45    165.008759    22.201450
5000.65    173.655014    32.761650
5001.85    179.105194    31.997540
5003.05    183.152847    30.881792
5004.24    198.286148    27.222267
5005.44    198.003357    21.962347
5006.64    172.885864    25.790901
5007.84    226.738159    23.860929
5009.04    206.635498    24.009365
5010.24    175.956940    24.114813
5011.44    223.615051    22.216043
5012.64    206.373276    30.222576
5013.84    201.884583    36.572174
5015.04    206.218475    35.549591
5016.24    206.363266    30.854815
5017.44    214.935837    28.020393
5018.64    216.498428    27.775509
5019.84    230.737366    28.503923
5021.04    215.558182    26.622929
5022.24    195.478210    22.386835
5023.44    235.665924    20.851110
5024.64    225.214401    24.205626
5025.84    227.292145    28.178999
5027.04    240.956238    28.645426
5028.24    226.376984    26.967705
5029.44    218.473953    27.217958
5030.64    189.424316    24.145397
5031.84    204.841110    17.587336
5033.04    238.852188    18.885965
5034.24    200.974503    28.906618
5035.44    161.697052    22.792316
5036.64    178.051758    28.680532
5037.84    203.715729    34.231979
5039.03    200.998611    26.702850
5040.23    202.088486    30.879662
5041.43    180.655365    33.698769
5042.63    186.443375    24.499334
5043.83    203.721237    20.431381
5045.03    179.792099    31.850346
5046.23    167.123703    27.025692
5047.43    196.863373    20.284031
5048.63    210.726334    23.527996
5049.83    197.622864    30.488380
5051.03    218.525452    31.735792
5052.23    206.895767    34.336449
5053.43    197.822006    30.280697
5054.63    217.021103    22.818487
5055.83    232.939453    23.867788
5057.03    217.492264    29.421005
5058.23    176.694000    32.723312
5059.43    163.205444    30.366631
5060.63    190.858337    25.665812
5061.83    208.396942    24.233515
5063.03    214.218369    22.429167
5064.23    225.014633    22.817205
5065.43    222.623032    28.988480
5066.63    201.871765    34.198631
5067.83    224.496658    24.469831
5069.03    215.591476    24.212399
5070.23    201.774200    29.926479
5071.43    232.053970    26.673735
5072.62    248.170990    23.431973
5073.82    220.039276    29.807232
5075.02    233.458771    32.559540
5076.22    267.286865    28.666906
5077.42    229.124466    28.330038
5078.62    230.771805    23.091208
5079.82    231.079407    24.419651
5081.02    209.078003    31.855968
5082.22    200.966904    35.973495
5083.42    210.521484    38.265114
5084.62    202.359863    35.308678
5085.82    201.087311    32.640369
5087.02    222.718552    31.647575
5088.22    232.021576    26.457798
5089.42    235.354828    28.028080
5090.62    222.748245    30.629860
5091.82    198.976685    31.440525
5093.02    191.907196    34.004761
5094.22    210.962402    31.584763
5095.42    211.317535    32.777893
5096.62    198.171387    38.540020
5097.82    207.654297    38.134342
5099.02    229.659683    26.013000
5100.22    234.731689    22.318504
5101.42    241.603851    26.336060
5102.62    252.563828    29.240280
5103.82    232.754547    32.711758
5105.02    235.998367    31.869480
5106.22    234.612427    31.380001
5107.41    222.302734    33.113453
5108.61    237.389664    33.604691
5109.81    236.099167    36.414520
5111.01    237.330902    25.545052
5112.21    238.983704    15.163451
5113.41    227.621674    25.411291
5114.61    250.985123    23.957626
5115.81    280.307556    22.083248
5117.01    268.127014    26.255463
5118.21    225.523254    28.028866
5119.41    226.709961    25.157902
5120.61    242.385040    27.853466
5121.81    231.752228    33.643559
5123.01    205.481018    34.966206
5124.21    209.783966    32.742462
5125.41    216.718323    30.542118
5126.61    207.067108    30.080366
5127.81    209.690521    34.887135
5129.01    250.108307    42.756508
5130.21    239.028519    29.978565
5131.41    224.943405    23.920992
5132.61    236.364929    32.601933
5133.81    231.902542    28.409950
5135.01    250.716843    21.511471
5136.21    253.549088    23.640141
5137.41    236.174149    31.060125
5138.61    237.640915    31.559271
5139.81    236.161118    25.187027
5141.01    232.161575    22.816505
5142.20    234.322800    22.184458
5143.40    243.985962    17.970161
5144.60    249.497849    23.906675
5145.80    222.291565    32.625591
5147.00    208.356888    32.832596
5148.20    236.516159    27.930830
5149.40    219.977020    34.106644
5150.60    225.579025    30.138176
5151.80    236.197968    24.196896
5153.00    211.419128    30.859249
5154.20    221.754547    29.835293
5155.40    245.274719    29.687790
5156.60    259.143951    30.840797
5157.80    263.966309    28.045443
5159.00    263.460754    27.232021
5160.20    251.517288    35.574497
5161.40    226.873718    39.024426
5162.60    214.000000    31.000000
5163.80    240.354309    31.682486
5165.00    228.974304    34.542160
5166.20    206.560822    30.600300
5167.40    227.289978    21.941853
5168.60    257.422089    19.464558
5169.80    257.009552    22.322664
5171.00    224.930054    26.144054
5172.20    201.012421    26.980410
5173.40    226.346024    24.733023
5174.60    255.988693    28.150690
5175.80    264.682343    26.571007
5176.99    255.850815    19.002554
5178.19    240.960205    26.853495
5179.39    241.598434    27.703371
5180.59    232.893799    25.532576
5181.79    203.959106    32.013245
5182.99    198.146057    34.710552
5184.19    204.461243    26.085115
5185.39    210.942947    25.789886
5186.59    212.056503    36.015347
5187.79    204.577698    23.054840
5188.99    208.913757    20.236631
5190.19    209.311981    27.137463
5191.39    203.572922    26.037529
5192.59    234.398468    26.169249
5193.79    244.095367    24.462656
5194.99    223.809189    23.174103
5196.19    211.066223    26.729542
5197.39    216.329300    31.173754
5198.59    207.494919    31.483030
5199.79    207.909698    27.991350
5200.99    241.759109    26.721106
5202.19    251.747818    32.006184
5203.39    252.581268    26.746843
5204.59    271.437897    18.615280
5205.79    286.151855    24.257900
5206.99    229.836548    27.082148
5208.19    211.594574    27.155672
5209.39    246.619995    31.334202
5210.59    253.428833    37.288334
5211.78    262.815247    28.814011
5212.98    275.474365    23.560509
5214.18    277.247223    28.644190
5215.38    266.884216    32.027321
5216.58    262.625824    37.558342
5217.78    265.596283    34.833565
5218.98    261.894501    25.548841
5220.18    250.460388    26.212875
5221.38    276.909302    28.169903
5222.58    286.066254    29.989983
5223.78    256.483521    34.157581
5224.98    260.269257    37.600319
5226.18    262.298584    32.216263
5227.38    275.911163    27.995491
5228.58    297.309601    31.925079
5229.78    260.457794    31.461523
5230.98    257.730865    31.371861
5232.18    274.414459    29.982626
5233.38    253.362106    25.964525
5234.58    254.491989    30.664387
5235.78    253.902908    33.117645
5236.98    257.817352    29.190195
5238.18    284.064301    27.516237
5239.38    265.146942    33.229851
5240.58    238.049545    36.124550
5241.78    236.390686    32.600735
5242.98    241.547485    30.839985
5244.18    247.903824    32.857292
5245.38    261.853058    36.226166
5246.57    272.923523    38.016750
5247.77    256.406372    37.034275
5248.97    240.659500    33.167656
5250.17    270.095428    30.848204
5251.37    322.986603    31.096945
5252.57    299.926483    28.718113
5253.77    265.971924    35.844799
5254.97    277.544342    38.188431
5256.17    311.267639    24.465233
5257.37    297.094208    34.159386
5258.57    269.597778    41.041042
5259.77    274.657654    33.414753
5260.97    305.713959    33.043812
5262.17    311.611786    30.720724
5263.37    297.594147    29.235847
5264.57    287.912079    34.105331
5265.77    283.229126    40.009590
5266.97    269.795776    36.107990
5268.17    255.240204    35.986561
5269.37    262.512054    45.070320
5270.57    299.828400    34.106632
5271.77    314.935638    29.701475
5272.97    305.089905    36.550850
5274.17    298.870972    34.550007
5275.37    261.727020    34.224316
5276.57    251.570038    37.566444
5277.77    265.194580    37.782192
5278.97    221.782410    31.028547
5280.17    214.620102    32.829571
5281.36    243.923553    43.347733
5282.56    249.160538    44.924969
5283.76    222.789169    23.468496
5284.96    226.478119    23.327927
5286.16    258.599884    37.736687
5287.36    274.729889    28.989929
5288.56    294.133423    25.237078
5289.76    294.000732    33.523529
5290.96    265.517578    44.395737
5292.16    244.926025    46.960541
5293.36    261.825531    37.487305
5294.56    274.696686    32.597412
