#Wavelength     Flux
#[Angstrom]   [Counts]
3913.05     0.000000
3914.68     0.000000
3916.32     0.000000
3917.95     0.000000
3919.59     0.000000
3921.23     0.000000
3922.86     0.000000
3924.50     0.000000
3926.14     0.000000
3927.77     0.000000
3929.41     0.000000
3931.04     0.000000
3932.68     0.000000
3934.32     0.000000
3935.95     0.000000
3937.59     0.000000
3939.22     0.000000
3940.86     0.000000
3942.50     0.000000
3944.13     0.000000
3945.77     0.000000
3947.41     0.000000
3949.04    4900.240000
3950.68    3614.192000
3952.31    3014.072000
3953.95    2804.224000
3955.59    2922.153000
3957.22    3042.092000
3958.86    2975.966000
3960.49    2761.952000
3962.13    2375.074000
3963.77    2230.986000
3965.40    1624.555000
3967.04    1727.383000
3968.68    1845.218000
3970.31    2451.020000
3971.95    2859.356000
3973.59    2891.447000
3975.22    3228.095000
3976.86    3118.036000
3978.49    3182.809000
3980.13    3181.487000
3981.77    3143.299000
3983.40    2925.322000
3985.04    2668.950000
3986.67    3204.083000
3988.31    2755.487000
3989.95    3075.476000
3991.58    2895.140000
3993.22    2557.926000
3994.86    2576.271000
3996.49    2373.502000
3998.13    1879.364000
3999.76    1470.610000
4001.40    1609.038000
4003.04    1619.767000
4004.67    1965.211000
4006.31    1965.007000
4007.95    2365.041000
4009.58    2630.494000
4011.22    2805.344000
4012.85    3062.297000
4014.49    3056.682000
4016.13    3566.454000
4017.76    3057.031000
4019.40    3507.833000
4021.03    3434.629000
4022.67    3748.774000
4024.31    3612.177000
4025.94    3338.116000
4027.58    3273.268000
4029.22    3248.703000
4030.85    3082.773000
4032.49    3626.590000
4034.12    3832.792000
4035.76    3778.586000
4037.40    3627.490000
4039.03    3435.274000
4040.67    3630.337000
4042.30    3809.676000
4043.94    4061.283000
4045.58    3475.362000
4047.21    3501.242000
4048.85    3470.757000
4050.49    3697.464000
4052.12    3565.048000
4053.76    3984.651000
4055.39    3810.931000
4057.03    3328.475000
4058.67    3663.547000
4060.30    3828.023000
4061.94    3557.047000
4063.58    3630.801000
4065.21    3392.393000
4066.85    3621.146000
4068.49    3792.502000
4070.12    3943.051000
4071.76    3778.693000
4073.39    3956.644000
4075.03    3867.439000
4076.67    3373.786000
4078.30    3422.930000
4079.94    3545.571000
4081.57    3442.379000
4083.21    3416.312000
4084.85    3575.606000
4086.48    4026.826000
4088.12    3799.457000
4089.76    3466.312000
4091.39    3536.219000
4093.03    3329.573000
4094.66    3376.996000
4096.30    3693.998000
4097.94    3726.536000
4099.57    3662.236000
4101.21    3549.607000
4102.85    3605.088000
4104.48    3607.593000
4106.12    3546.812000
4107.75    3566.539000
4109.39    3514.714000
4111.03    3242.504000
4112.66    3321.980000
4114.30    3492.240000
4115.94    3562.439000
4117.57    3166.142000
4119.21    3354.219000
4120.84    3363.115000
4122.48    3390.232000
4124.12    3403.478000
4125.75    3058.010000
4127.39    3058.023000
4129.02    3106.200000
4130.66    2932.854000
4132.30    2832.921000
4133.93    2860.806000
4135.57    2759.960000
4137.20    2784.145000
4138.84    2889.797000
4140.48    2599.096000
4142.11    2871.334000
4143.75    3167.296000
4145.39    3261.645000
4147.02    3440.482000
4148.66    3363.558000
4150.30    3268.432000
4151.93    3365.896000
4153.57    3350.669000
4155.20    3380.439000
4156.84    3515.537000
4158.48    3272.793000
4160.11    3243.556000
4161.75    3164.765000
4163.39    3318.163000
4165.02    3253.648000
4166.66    3159.188000
4168.29    3668.585000
4169.93    3950.124000
4171.56    3779.746000
4173.20    3720.134000
4174.84    3493.828000
4176.47    3298.961000
4178.11    3282.966000
4179.75    3400.541000
4181.38    3342.307000
4183.02    3372.572000
4184.65    3646.979000
4186.29    3519.389000
4187.93    3314.458000
4189.56    3427.287000
4191.20    3379.653000
4192.84    3633.551000
4194.47    4043.363000
4196.11    3965.453000
4197.74    3870.340000
4199.38    3998.889000
4201.02    3948.870000
4202.65    3453.723000
4204.29    3546.791000
4205.93    3498.761000
4207.56    3258.389000
4209.20    3290.455000
4210.83    3453.519000
4212.47    3623.749000
4214.11    3697.026000
4215.74    3629.211000
4217.38    3493.172000
4219.02    3488.636000
4220.65    3464.529000
4222.29    3712.271000
4223.92    3717.098000
4225.56    3781.623000
4227.20    3607.436000
4228.83    3526.575000
4230.47    3785.875000
4232.10    3648.758000
4233.74    3555.152000
4235.38    3485.600000
4237.01    3398.613000
4238.65    3634.196000
4240.29    3635.037000
4241.92    3590.010000
4243.56    3656.687000
4245.19    3866.241000
4246.83    3883.779000
4248.47    3733.490000
4250.10    3531.681000
4251.74    3489.520000
4253.38    3787.028000
4255.01    3559.654000
4256.65    3401.885000
4258.28    3330.147000
4259.92    3370.668000
4261.56    3096.199000
4263.19    3173.030000
4264.83    3488.843000
4266.47    3796.526000
4268.10    3931.396000
4269.74    3614.797000
4271.37    3568.770000
4273.01    3525.629000
4274.65    3480.253000
4276.28    3532.426000
4277.92    3795.638000
4279.56    3637.048000
4281.19    3621.696000
4282.83    3540.163000
4284.46    3626.389000
4286.10    3655.524000
4287.74    3769.400000
4289.37    3633.769000
4291.01    3474.546000
4292.65    3481.765000
4294.28    3477.482000
4295.92    3481.268000
4297.55    3847.278000
4299.19    3886.839000
4300.83    3774.625000
4302.46    3699.329000
4304.10    3581.280000
4305.73    3567.877000
4307.37    3143.625000
4309.01    3269.691000
4310.64    3343.371000
4312.28    3502.381000
4313.92    3759.225000
4315.55    3717.274000
4317.19    3777.387000
4318.82    3846.793000
4320.46    3669.818000
4322.10    3360.353000
4323.73    3524.372000
4325.37    3158.900000
4327.01    3352.289000
4328.64    3477.382000
4330.28    3327.685000
4331.91    3453.265000
4333.55    3368.797000
4335.19    3131.968000
4336.82    2758.514000
4338.46    3119.475000
4340.10    2949.503000
4341.73    3134.774000
4343.37    2924.169000
4345.00    3048.548000
4346.64    3272.372000
4348.28    3609.437000
4349.91    3664.820000
4351.55    3824.855000
4353.19    3937.731000
4354.82    3651.333000
4356.46    3779.327000
4358.09    3579.309000
4359.73    3104.995000
4361.36    3085.402000
4363.00    3327.835000
4364.64    3435.786000
4366.27    3496.002000
4367.91    3242.890000
4369.55    3294.055000
4371.18    3173.143000
4372.82    3134.852000
4374.45    3498.164000
4376.09    3707.092000
4377.73    3551.584000
4379.36    3440.611000
4381.00    3220.405000
4382.64    3071.183000
4384.27    3412.139000
4385.91    3516.281000
4387.55    3580.204000
4389.18    3543.273000
4390.82    3331.346000
4392.45    3693.939000
4394.09    4088.709000
4395.73    3889.638000
4397.36    3945.068000
4399.00    3988.279000
4400.63    3999.546000
4402.27    3849.564000
4403.91    3870.385000
4405.54    3954.149000
4407.18    3825.385000
4408.81    3862.420000
4410.45    3698.973000
4412.09    3757.384000
4413.72    3839.340000
4415.36    3694.620000
4417.00    3710.990000
4418.63    3480.810000
4420.27    3673.416000
4421.90    3216.410000
4423.54    3336.995000
4425.18    3364.630000
4426.81    3599.812000
4428.45    3665.214000
4430.09    4050.897000
4431.72    3820.074000
4433.36    3986.421000
4434.99    3801.628000
4436.63    3675.100000
4438.27    3903.101000
4439.90    3807.558000
4441.54    3637.202000
4443.18    3782.127000
4444.81    4074.632000
4446.45    3699.621000
4448.08    3820.703000
4449.72    3785.017000
4451.36    3879.384000
4452.99    3592.358000
4454.63    4291.485000
4456.27    4129.280000
4457.90    4087.663000
4459.54    3823.186000
4461.17    3780.689000
4462.81    3942.695000
4464.45    3961.057000
4466.08    3682.149000
4467.72    3916.994000
4469.35    3598.160000
4470.99    3759.229000
4472.63    4056.753000
4474.26    3840.098000
4475.90    3823.179000
4477.54    4360.461000
4479.17    4070.396000
4480.81    3936.040000
4482.44    4081.093000
4484.08    4464.839000
4485.72    3952.200000
4487.35    4019.746000
4488.99    3978.062000
4490.62    3901.508000
4492.26    3888.901000
4493.90    3557.135000
4495.53    3867.399000
4497.17    4037.263000
4498.81    3916.777000
4500.44    3919.498000
4502.08    4057.121000
4503.72    4052.074000
4505.35    3924.200000
4506.99    3847.173000
4508.62    4126.976000
4510.26    3887.556000
4511.90    4401.571000
4513.53    4572.167000
4515.17    4414.062000
4516.81    3993.917000
4518.44    4168.614000
4520.08    4026.865000
4521.71    4245.030000
4523.35    4363.443000
4524.99    4263.149000
4526.62    4194.538000
4528.26    4006.930000
4529.90    4425.182000
4531.53    3837.906000
4533.17    4130.462000
4534.80    4306.878000
4536.44    4136.515000
4538.08    4227.774000
4539.71    4434.198000
4541.35    4275.764000
4542.98    4512.454000
4544.62    4395.995000
4546.26    4772.914000
4547.89    4242.521000
4549.53    4115.977000
4551.17    4025.709000
4552.80    4397.809000
4554.44    4228.876000
4556.07    4191.014000
4557.71    4358.337000
4559.35    4282.105000
4560.98    4061.157000
4562.62    4231.240000
4564.26    4082.626000
4565.89    4035.535000
4567.53    4093.645000
4569.16    4021.724000
4570.80    3952.868000
4572.44    4074.529000
4574.07    4254.830000
4575.71    4062.700000
4577.35    4251.962000
4578.98    4193.417000
4580.62    4225.652000
4582.25    4225.553000
4583.89    4098.164000
4585.53    3927.924000
4587.16    4111.571000
4588.80    4134.815000
4590.43    3777.674000
4592.07    3996.999000
4593.71    4120.874000
4595.34    4266.537000
4596.98    4190.633000
4598.61    4451.002000
4600.25    4176.364000
4601.89    4106.857000
4603.52    4279.537000
4605.16    4244.125000
4606.80    4140.047000
4608.43    4085.812000
4610.07    4358.067000
4611.70    4370.108000
4613.34    4404.139000
4614.98    4328.497000
4616.61    4139.557000
4618.25    4189.460000
4619.89    4194.696000
4621.52    4493.107000
4623.16    4059.875000
4624.79    4204.979000
4626.43    4224.852000
4628.07    4240.298000
4629.70    4148.180000
4631.34    4157.782000
4632.98    4198.772000
4634.61    4240.741000
4636.25    4198.379000
4637.88    4221.234000
4639.52    4140.376000
4641.16    4291.946000
4642.79    4351.778000
4644.43    4375.089000
4646.06    4264.698000
4647.70    4252.788000
4649.34    4678.470000
4650.97    4627.150000
4652.61    4570.269000
4654.25    4501.476000
4655.88    4452.081000
4657.52    4342.509000
4659.15    4412.513000
4660.79    4530.945000
4662.43    4506.138000
4664.06    4652.702000
4665.70    4515.478000
4667.34    4149.990000
4668.97    4350.023000
4670.61    4514.683000
4672.24    4369.111000
4673.88    4217.116000
4675.52    4195.627000
4677.15    4170.801000
4678.79    4327.396000
4680.43    4416.203000
4682.06    4389.533000
4683.70    4351.019000
4685.33    4354.619000
4686.97    4175.694000
4688.61    4131.584000
4690.24    4232.707000
4691.88    4248.271000
4693.52    4267.992000
4695.15    4268.188000
4696.79    4424.174000
4698.42    4374.928000
4700.06    4525.845000
4701.70    4332.175000
4703.33    4040.256000
4704.97    3962.114000
4706.60    4082.157000
4708.24    4076.171000
4709.88    4099.808000
4711.51    4253.225000
4713.15    4353.983000
4714.79    4304.589000
4716.42    4289.540000
4718.06    4307.162000
4719.69    4300.909000
4721.33    4180.382000
4722.97    4194.765000
4724.60    4367.824000
4726.24    4283.891000
4727.88    4336.811000
4729.51    4223.411000
4731.15    4269.407000
4732.78    4232.846000
4734.42    4402.542000
4736.06    4411.831000
4737.69    4211.429000
4739.33    4237.461000
4740.97    4133.269000
4742.60    4247.181000
4744.24    4287.589000
4745.87    4206.048000
4747.51    4343.421000
4749.15    4394.014000
4750.78    4281.478000
4752.42    4267.588000
4754.06    4321.819000
4755.69    4450.168000
4757.33    4580.514000
4758.96    4589.854000
4760.60    4633.301000
4762.24    4686.714000
4763.87    4477.910000
4765.51    4181.157000
4767.15    4161.082000
4768.78    4343.058000
4770.42    4384.572000
4772.05    4309.558000
4773.69    4239.318000
4775.33    4557.293000
4776.96    4393.411000
4778.60    4330.763000
4780.23    4425.271000
4781.87    4604.061000
4783.51    4661.828000
4785.14    4411.890000
4786.78    4361.428000
4788.41    4533.299000
4790.05    4589.871000
4791.69    4478.869000
4793.32    4490.250000
4794.96    4351.981000
4796.60    4421.135000
4798.23    4605.709000
4799.87    4375.316000
4801.51    4223.292000
4803.14    4247.260000
4804.78    4347.708000
4806.41    4488.363000
4808.05    4194.124000
4809.69    4309.593000
4811.32    4295.151000
4812.96    4381.009000
4814.59    4539.005000
4816.23    4417.146000
4817.87    4472.661000
4819.50    4557.769000
4821.14    4509.819000
4822.77    4502.194000
4824.41    4548.153000
4826.05    4487.597000
4827.68    4268.494000
4829.32    4472.781000
4830.96    4829.560000
4832.59    4539.191000
4834.23    4448.564000
4835.86    4658.921000
4837.50    4486.982000
4839.14    4429.298000
4840.77    4337.067000
4842.41    4310.453000
4844.05    4241.155000
4845.68    4370.880000
4847.32    4429.468000
4848.95    4547.181000
4850.59    4514.641000
4852.23    4549.104000
4853.86    4618.351000
4855.50    4670.156000
4857.14    4694.125000
4858.77    4784.272000
4860.41    4615.229000
4862.04    4356.086000
4863.68    4481.197000
4865.32    4449.864000
4866.95    4393.670000
4868.59    4547.432000
4870.23    4410.425000
4871.86    4511.667000
4873.50    4497.310000
4875.13    4311.203000
4876.77    4330.804000
4878.41    4337.257000
4880.04    4243.257000
4881.68    4136.196000
4883.31    4143.817000
4884.95    4242.523000
4886.59    4000.462000
4888.22    4035.184000
4889.86    3907.176000
4891.50    3850.244000
4893.13    3915.697000
4894.77    3866.539000
4896.40    3975.460000
4898.04    4589.203000
4899.68    5354.205000
4901.31    5954.674000
4902.95    5449.381000
4904.59    4530.775000
4906.22    4182.707000
4907.86    3785.486000
4909.49    3779.560000
4911.13    3671.645000
4912.77    3803.278000
4914.40    3891.574000
4916.04    3958.657000
4917.68    4174.619000
4919.31    3992.807000
4920.95    4013.345000
4922.58    4011.594000
4924.22    4105.886000
4925.86    4009.333000
4927.49    4117.663000
4929.13    3909.109000
4930.77    3994.561000
4932.40    4238.868000
4934.04    4315.867000
4935.67    4559.000000
4937.31    4703.008000
4938.95    4493.887000
4940.58    4427.986000
4942.22    4391.208000
4943.85    4281.876000
4945.49    4506.859000
4947.13    4403.300000
4948.76    4463.536000
4950.40    4366.776000
4952.04    4257.415000
4953.67    4483.952000
4955.31    4565.932000
4956.94    4215.040000
4958.58    4138.794000
4960.22    4063.349000
4961.85    4130.515000
4963.49    3889.496000
4965.12    4447.132000
4966.76    4535.646000
4968.40    4360.471000
4970.03    4577.687000
4971.67    4676.464000
4973.31    4492.676000
4974.94    4499.492000
4976.58    4211.109000
4978.22    4216.032000
4979.85    4489.059000
4981.49    4370.745000
4983.12    4370.453000
4984.76    4727.837000
4986.40    4400.361000
4988.03    4653.637000
4989.67    4944.091000
4991.31    4659.833000
4992.94    4576.254000
4994.58    4764.534000
4996.21    4516.576000
4997.85    4405.910000
4999.49    4378.683000
5001.12    4536.543000
5002.76    4619.737000
5004.39    4631.179000
5006.03    4345.515000
5007.67    4481.669000
5009.30    4450.517000
5010.94    4300.145000
5012.57    4225.943000
5014.21    4531.321000
5015.85    4397.757000
5017.48    4369.686000
5019.12    4363.839000
5020.76    4257.610000
5022.39    4378.266000
5024.03    4149.131000
5025.66    4150.770000
5027.30    4242.720000
5028.94    4358.258000
5030.57    4453.796000
5032.21    4412.778000
5033.85    4526.576000
5035.48    4385.006000
5037.12    4323.399000
5038.75    4170.204000
5040.39    4209.146000
5042.03    4294.076000
5043.66    4248.026000
5045.30    4426.625000
5046.94    4789.465000
5048.57    4923.027000
5050.21    4787.764000
5051.84    4557.893000
5053.48    4290.780000
5055.12    4139.120000
5056.75    4012.407000
5058.39    3985.777000
5060.02    4098.251000
5061.66    4295.427000
5063.30    4327.539000
5064.93    4160.098000
5066.57    4189.249000
5068.21    4340.572000
5069.84    4285.266000
5071.48    4271.889000
5073.11    4377.622000
5074.75    4349.349000
5076.39    4378.739000
5078.02    4324.247000
5079.66    4061.113000
5081.30    3986.788000
5082.93    4123.168000
5084.57    4220.700000
5086.20    4248.840000
5087.84    4357.376000
5089.48    4403.051000
5091.11    4446.854000
5092.75    4222.505000
5094.39    4237.653000
5096.02    4407.726000
5097.66    4414.475000
5099.29    4511.949000
5100.93    4553.402000
5102.57    4511.650000
5104.20    4518.981000
5105.84    4475.030000
5107.48    4215.104000
5109.11    4248.799000
5110.75    4517.547000
5112.38    4515.635000
5114.02    4353.321000
5115.66    4423.940000
5117.29    4426.937000
5118.93    4475.158000
5120.56    4209.036000
5122.20    4185.092000
5123.84    4317.622000
5125.47    4253.879000
5127.11    4278.140000
5128.75    4286.329000
5130.38    4313.356000
5132.02    4372.922000
5133.65    4344.033000
5135.29    4457.253000
5136.93    4419.825000
5138.56    4314.807000
5140.20    4246.177000
5141.84    4314.645000
5143.47    4553.545000
5145.11    4429.573000
5146.74    4508.090000
5148.38    4339.869000
5150.02    4190.591000
5151.65    4316.272000
5153.29    4197.776000
5154.93    4597.068000
5156.56    4486.812000
5158.20    4325.038000
5159.83    4642.348000
5161.47    4573.893000
5163.11    4433.456000
5164.74    4360.387000
5166.38    4265.432000
5168.02    4156.412000
5169.65    4094.634000
5171.29    4085.591000
5172.92    4210.843000
5174.56    4429.344000
5176.20    4145.661000
5177.83    4231.481000
5179.47    4102.657000
5181.10    4177.566000
5182.74    4023.684000
5184.38    4075.733000
5186.01    4233.429000
5187.65    4175.433000
5189.29    4141.066000
5190.92    4298.645000
5192.56    4314.953000
5194.19    4315.311000
5195.83    4247.566000
5197.47    4487.448000
5199.10    4522.292000
5200.74    4566.648000
5202.38    4465.861000
5204.01    4408.148000
5205.65    4413.378000
5207.28    3911.024000
5208.92    3656.340000
5210.56    3897.199000
5212.19    3777.206000
5213.83    3611.822000
5215.47    3723.960000
5217.10    3855.286000
5218.74    4005.784000
5220.37    4252.065000
5222.01    4185.058000
5223.65    4052.808000
5225.28    4081.630000
5226.92    3945.896000
5228.56    3924.750000
5230.19    4115.419000
5231.83    4080.549000
5233.46    4091.609000
5235.10    4210.607000
5236.73    4208.486000
5238.37    4474.443000
5240.01    4390.636000
5241.64    4330.921000
5243.28    4405.645000
5244.92    4293.813000
5246.55    4240.476000
5248.19    4089.017000
5249.82    4019.904000
5251.46    3977.039000
5253.10    4211.244000
5254.73    4152.171000
5256.37    4132.685000
5258.01    4415.687000
5259.64    4353.446000
5261.28    4355.925000
5262.91    4348.874000
5264.55    4335.184000
5266.19    4287.407000
5267.82    4145.551000
5269.46    4158.260000
5271.10    4325.985000
5272.73    4229.128000
5274.37    4301.471000
5276.00    4316.042000
5277.64    4393.104000
5279.28    4410.902000
5280.91    4363.973000
5282.55    4413.599000
5284.19    4392.318000
5285.82    4465.539000
5287.46    4614.048000
5289.09    4396.472000
5290.73    4236.669000
5292.37    4288.067000
5294.00    4176.948000
5295.64    4296.851000
5297.27    4224.609000
5298.91    4246.933000
5300.55    4439.065000
5302.18    4609.697000
5303.82    4307.780000
5305.46    4393.525000
5307.09    4150.925000
5308.73    3998.591000
5310.36    3850.713000
5312.00    3800.519000
5313.64    4000.410000
5315.27    4231.474000
5316.91    3983.544000
5318.55    4180.223000
5320.18    4334.822000
5321.82    4436.338000
5323.45    4372.103000
5325.09    4314.528000
5326.73    4614.651000
5328.36    4465.900000
5330.00    4543.949000
5331.64    4808.442000
5333.27    4796.973000
