#Wavelength     Flux
#[Angstrom]   [Counts]
3913.05     0.000000
3914.68     0.000000
3916.32     0.000000
3917.95     0.000000
3919.59     0.000000
3921.23     0.000000
3922.86     0.000000
3924.50     0.000000
3926.14     0.000000
3927.77     0.000000
3929.41     0.000000
3931.04     0.000000
3932.68     0.000000
3934.32     0.000000
3935.95    2912.394000
3937.59    1630.040000
3939.22    1752.281000
3940.86    1514.680000
3942.50    1596.197000
3944.13    1807.718000
3945.77    1975.528000
3947.41    1615.083000
3949.04    1409.534000
3950.68    1747.235000
3952.31    1653.180000
3953.95    1639.801000
3955.59    1618.288000
3957.22    1707.286000
3958.86    1905.429000
3960.49    2054.919000
3962.13    2143.840000
3963.77    2270.460000
3965.40    2013.691000
3967.04    2188.905000
3968.68    2315.194000
3970.31    2198.379000
3971.95    2441.946000
3973.59    2427.987000
3975.22    2287.811000
3976.86    2268.434000
3978.49    2468.975000
3980.13    2728.995000
3981.77    2634.865000
3983.40    2536.895000
3985.04    2575.976000
3986.67    2610.640000
3988.31    2218.353000
3989.95    2226.957000
3991.58    2216.169000
3993.22    2126.524000
3994.86    2009.497000
3996.49    1912.980000
3998.13    1383.898000
3999.76    1333.934000
4001.40    1469.433000
4003.04    1058.856000
4004.67    998.033500
4006.31    1081.118000
4007.95    1090.335000
4009.58    1235.793000
4011.22    1384.006000
4012.85    1818.213000
4014.49    1975.984000
4016.13    2067.471000
4017.76    2239.742000
4019.40    2232.231000
4021.03    2234.193000
4022.67    2280.450000
4024.31    2461.024000
4025.94    2349.863000
4027.58    2393.842000
4029.22    2369.265000
4030.85    2042.118000
4032.49    2034.570000
4034.12    1620.510000
4035.76    1411.453000
4037.40    1410.239000
4039.03    1379.996000
4040.67    1365.510000
4042.30    1245.301000
4043.94    1258.743000
4045.58    1757.880000
4047.21    2189.159000
4048.85    2036.469000
4050.49    2325.379000
4052.12    2686.141000
4053.76    2561.213000
4055.39    2902.330000
4057.03    2830.643000
4058.67    2981.720000
4060.30    2969.400000
4061.94    2790.951000
4063.58    3080.777000
4065.21    2736.250000
4066.85    3125.331000
4068.49    3109.963000
4070.12    3209.336000
4071.76    3166.544000
4073.39    3395.780000
4075.03    3300.713000
4076.67    3303.196000
4078.30    3138.191000
4079.94    3187.363000
4081.57    2933.270000
4083.21    3153.121000
4084.85    3266.089000
4086.48    3538.311000
4088.12    3249.479000
4089.76    3443.821000
4091.39    3322.118000
4093.03    3196.884000
4094.66    3301.675000
4096.30    3603.887000
4097.94    3400.138000
4099.57    3333.028000
4101.21    3313.900000
4102.85    3406.112000
4104.48    3080.805000
4106.12    2982.577000
4107.75    3232.833000
4109.39    3242.404000
4111.03    3166.697000
4112.66    3095.971000
4114.30    3110.527000
4115.94    3080.294000
4117.57    3260.133000
4119.21    3077.220000
4120.84    3193.171000
4122.48    3121.353000
4124.12    3020.303000
4125.75    3303.524000
4127.39    3362.598000
4129.02    3175.614000
4130.66    3419.797000
4132.30    3185.441000
4133.93    3229.393000
4135.57    2682.357000
4137.20    2679.359000
4138.84    2684.834000
4140.48    2664.285000
4142.11    3092.532000
4143.75    3079.787000
4145.39    3074.561000
4147.02    3041.981000
4148.66    3163.035000
4150.30    2969.926000
4151.93    3400.934000
4153.57    3183.952000
4155.20    3062.914000
4156.84    3596.677000
4158.48    3152.814000
4160.11    3676.894000
4161.75    3580.255000
4163.39    3435.795000
4165.02    3393.113000
4166.66    3441.406000
4168.29    2880.988000
4169.93    3327.272000
4171.56    2970.234000
4173.20    3087.474000
4174.84    2955.532000
4176.47    2720.890000
4178.11    3167.251000
4179.75    3263.242000
4181.38    3112.592000
4183.02    3381.204000
4184.65    3325.137000
4186.29    2750.848000
4187.93    3416.305000
4189.56    3157.564000
4191.20    3179.334000
4192.84    3129.664000
4194.47    3314.992000
4196.11    3142.423000
4197.74    3015.683000
4199.38    3264.220000
4201.02    3242.354000
4202.65    2821.640000
4204.29    3355.908000
4205.93    3014.502000
4207.56    3181.038000
4209.20    3213.504000
4210.83    3365.661000
4212.47    3109.980000
4214.11    3074.656000
4215.74    3405.722000
4217.38    3166.622000
4219.02    2966.102000
4220.65    3054.249000
4222.29    3078.054000
4223.92    2601.927000
4225.56    3014.074000
4227.20    2756.156000
4228.83    2935.638000
4230.47    3073.591000
4232.10    3247.982000
4233.74    2995.160000
4235.38    3023.925000
4237.01    2983.911000
4238.65    2992.135000
4240.29    3397.775000
4241.92    3110.416000
4243.56    2832.672000
4245.19    3071.167000
4246.83    3025.415000
4248.47    3047.669000
4250.10    2782.200000
4251.74    2936.451000
4253.38    2992.464000
4255.01    3061.211000
4256.65    2923.272000
4258.28    3005.774000
4259.92    3194.579000
4261.56    3132.686000
4263.19    3377.099000
4264.83    3120.415000
4266.47    3049.643000
4268.10    3081.479000
4269.74    3109.632000
4271.37    3151.977000
4273.01    3076.765000
4274.65    3221.707000
4276.28    3221.628000
4277.92    3154.689000
4279.56    3122.504000
4281.19    3331.697000
4282.83    3279.935000
4284.46    3386.330000
4286.10    3373.679000
4287.74    3506.887000
4289.37    3426.229000
4291.01    3429.136000
4292.65    3156.292000
4294.28    3370.669000
4295.92    3201.823000
4297.55    3114.893000
4299.19    3351.249000
4300.83    3261.733000
4302.46    2930.755000
4304.10    2833.629000
4305.73    3170.484000
4307.37    3143.550000
4309.01    3199.126000
4310.64    3290.054000
4312.28    3229.406000
4313.92    3489.652000
4315.55    3504.383000
4317.19    3441.744000
4318.82    3427.871000
4320.46    3401.967000
4322.10    3395.651000
4323.73    3609.553000
4325.37    3437.523000
4327.01    3083.043000
4328.64    3215.292000
4330.28    3289.318000
4331.91    3259.346000
4333.55    3119.047000
4335.19    3009.485000
4336.82    3186.532000
4338.46    3240.176000
4340.10    3375.530000
4341.73    3339.229000
4343.37    3452.971000
4345.00    3635.146000
4346.64    3377.272000
4348.28    3097.980000
4349.91    3053.468000
4351.55    2972.140000
4353.19    3324.345000
4354.82    3440.783000
4356.46    3493.957000
4358.09    3600.987000
4359.73    3481.749000
4361.36    3303.210000
4363.00    3330.825000
4364.64    3337.130000
4366.27    3276.780000
4367.91    3241.402000
4369.55    3293.077000
4371.18    3068.729000
4372.82    2999.584000
4374.45    2834.125000
4376.09    2846.733000
4377.73    2669.738000
4379.36    2458.379000
4381.00    2460.530000
4382.64    2518.596000
4384.27    2447.186000
4385.91    2287.328000
4387.55    2360.164000
4389.18    2739.821000
4390.82    2980.178000
4392.45    3089.605000
4394.09    3740.743000
4395.73    3671.801000
4397.36    3628.299000
4399.00    3579.782000
4400.63    3387.540000
4402.27    3449.238000
4403.91    3281.957000
4405.54    3482.916000
4407.18    3919.271000
4408.81    3962.107000
4410.45    3798.692000
4412.09    3696.597000
4413.72    3576.451000
4415.36    3815.556000
4417.00    3614.755000
4418.63    3224.989000
4420.27    3546.456000
4421.90    3882.748000
4423.54    3805.834000
4425.18    3782.051000
4426.81    3889.218000
4428.45    3987.760000
4430.09    3680.193000
4431.72    3817.791000
4433.36    3795.951000
4434.99    3536.672000
4436.63    3960.842000
4438.27    3954.283000
4439.90    4098.957000
4441.54    4094.672000
4443.18    4059.302000
4444.81    4051.622000
4446.45    3836.453000
4448.08    4036.784000
4449.72    4048.617000
4451.36    3844.058000
4452.99    3856.918000
4454.63    3636.604000
4456.27    3644.414000
4457.90    3800.381000
4459.54    3795.341000
4461.17    3563.266000
4462.81    3210.664000
4464.45    3448.868000
4466.08    3404.695000
4467.72    3285.261000
4469.35    3533.115000
4470.99    3815.113000
4472.63    3761.698000
4474.26    3660.287000
4475.90    4060.023000
4477.54    4091.376000
4479.17    3878.658000
4480.81    4073.342000
4482.44    3641.408000
4484.08    3730.260000
4485.72    3547.279000
4487.35    4006.020000
4488.99    4054.331000
4490.62    3985.285000
4492.26    4219.426000
4493.90    4129.122000
4495.53    4251.623000
4497.17    4398.628000
4498.81    4367.494000
4500.44    4233.470000
4502.08    4163.525000
4503.72    4399.614000
4505.35    4139.118000
4506.99    4271.736000
4508.62    4216.758000
4510.26    4078.600000
4511.90    4057.803000
4513.53    4168.868000
4515.17    4196.507000
4516.81    4404.727000
4518.44    4159.058000
4520.08    4596.480000
4521.71    4139.588000
4523.35    4257.071000
4524.99    4695.427000
4526.62    4409.896000
4528.26    4773.373000
4529.90    4458.677000
4531.53    4682.444000
4533.17    4279.208000
4534.80    4106.229000
4536.44    3985.052000
4538.08    3867.815000
4539.71    4188.969000
4541.35    4362.629000
4542.98    4384.562000
4544.62    4153.367000
4546.26    4392.539000
4547.89    4558.873000
4549.53    4532.461000
4551.17    4830.239000
4552.80    4648.691000
4554.44    4559.704000
4556.07    4921.297000
4557.71    4961.015000
4559.35    4761.705000
4560.98    4480.532000
4562.62    4702.686000
4564.26    4813.788000
4565.89    5017.866000
4567.53    4426.633000
4569.16    4864.868000
4570.80    4359.445000
4572.44    4422.193000
4574.07    4541.675000
4575.71    4613.940000
4577.35    4492.157000
4578.98    4407.100000
4580.62    4548.253000
4582.25    4772.722000
4583.89    5225.985000
4585.53    5058.448000
4587.16    5038.263000
4588.80    5103.782000
4590.43    5204.271000
4592.07    5062.342000
4593.71    5189.873000
4595.34    4841.550000
4596.98    4900.468000
4598.61    4866.104000
4600.25    4736.912000
4601.89    5034.921000
4603.52    4659.273000
4605.16    4753.089000
4606.80    4410.291000
4608.43    4512.730000
4610.07    4587.013000
4611.70    4582.512000
4613.34    4493.647000
4614.98    4620.526000
4616.61    4320.818000
4618.25    4623.396000
4619.89    4634.738000
4621.52    4724.234000
4623.16    4624.597000
4624.79    4813.723000
4626.43    5080.973000
4628.07    4916.247000
4629.70    4709.242000
4631.34    4552.266000
4632.98    4428.936000
4634.61    4510.918000
4636.25    4603.860000
4637.88    4796.522000
4639.52    5064.429000
4641.16    4914.811000
4642.79    5132.399000
4644.43    5146.490000
4646.06    5072.610000
4647.70    5114.063000
4649.34    4995.933000
4650.97    4871.819000
4652.61    5047.505000
4654.25    5086.321000
4655.88    5154.302000
4657.52    5137.489000
4659.15    4997.272000
4660.79    4978.201000
4662.43    4943.930000
4664.06    4988.426000
4665.70    4921.020000
4667.34    4786.114000
4668.97    4849.607000
4670.61    4646.207000
4672.24    4624.331000
4673.88    4630.203000
4675.52    4786.024000
4677.15    4752.392000
4678.79    4877.633000
4680.43    4813.212000
4682.06    4746.751000
4683.70    4823.768000
4685.33    4786.022000
4686.97    4810.598000
4688.61    4964.981000
4690.24    5053.705000
4691.88    5327.825000
4693.52    5365.620000
4695.15    5282.801000
4696.79    5242.130000
4698.42    5281.256000
4700.06    5194.044000
4701.70    5095.393000
4703.33    5187.914000
4704.97    5298.810000
4706.60    5423.158000
4708.24    5438.445000
4709.88    5135.095000
4711.51    5054.782000
4713.15    5178.931000
4714.79    4987.674000
4716.42    4887.243000
4718.06    5101.979000
4719.69    4947.755000
4721.33    5023.204000
4722.97    5093.382000
4724.60    5034.299000
4726.24    4951.016000
4727.88    4689.110000
4729.51    4695.604000
4731.15    4741.888000
4732.78    4752.342000
4734.42    4859.568000
4736.06    4697.198000
4737.69    4892.011000
4739.33    4773.413000
4740.97    4887.343000
4742.60    5066.936000
4744.24    4953.273000
4745.87    5126.399000
4747.51    4876.567000
4749.15    4507.787000
4750.78    4803.279000
4752.42    4704.821000
4754.06    4517.158000
4755.69    4587.666000
4757.33    4621.239000
4758.96    4653.837000
4760.60    4831.525000
4762.24    5005.976000
4763.87    4730.913000
4765.51    4916.087000
4767.15    4985.030000
4768.78    4699.476000
4770.42    4908.221000
4772.05    5134.225000
4773.69    4912.157000
4775.33    4679.243000
4776.96    5107.779000
4778.60    4938.493000
4780.23    4562.035000
4781.87    4616.232000
4783.51    4797.276000
4785.14    4600.960000
4786.78    4772.657000
4788.41    4693.931000
4790.05    4744.918000
4791.69    4676.937000
4793.32    4461.900000
4794.96    4930.608000
4796.60    4958.997000
4798.23    5008.281000
4799.87    5159.669000
4801.51    5251.628000
4803.14    5187.454000
4804.78    5305.976000
4806.41    5341.867000
4808.05    5311.184000
4809.69    5271.273000
4811.32    5233.495000
4812.96    5273.720000
4814.59    5038.996000
4816.23    4670.084000
4817.87    4954.868000
4819.50    4957.385000
4821.14    5269.674000
4822.77    5356.932000
4824.41    5217.490000
4826.05    5303.833000
4827.68    5290.542000
4829.32    5263.845000
4830.96    5290.005000
4832.59    5309.286000
4834.23    5616.607000
4835.86    5600.251000
4837.50    5247.209000
4839.14    5457.205000
4840.77    5393.475000
4842.41    5328.056000
4844.05    5256.322000
4845.68    5296.545000
4847.32    5576.267000
4848.95    5295.862000
4850.59    5039.500000
4852.23    4835.782000
4853.86    5020.783000
4855.50    4772.471000
4857.14    5341.828000
4858.77    5141.321000
4860.41    5272.086000
4862.04    5159.381000
4863.68    5212.097000
4865.32    5296.416000
4866.95    5251.985000
4868.59    5320.446000
4870.23    4950.679000
4871.86    5139.741000
4873.50    5532.116000
4875.13    5340.250000
4876.77    5407.934000
4878.41    5378.005000
4880.04    5203.267000
4881.68    5399.881000
4883.31    5662.858000
4884.95    5252.318000
4886.59    5424.938000
4888.22    5395.931000
4889.86    5222.386000
4891.50    5206.639000
4893.13    5827.195000
4894.77    5511.603000
4896.40    5306.391000
4898.04    5292.635000
4899.68    5584.470000
4901.31    5773.008000
4902.95    5410.518000
4904.59    5337.805000
4906.22    5696.307000
4907.86    5429.470000
4909.49    5537.597000
4911.13    5394.020000
4912.77    5424.969000
4914.40    5387.131000
4916.04    5216.119000
4917.68    5199.633000
4919.31    5563.874000
4920.95    5506.482000
4922.58    5361.712000
4924.22    5162.916000
4925.86    5267.130000
4927.49    5360.521000
4929.13    5178.044000
4930.77    5217.020000
4932.40    5586.444000
4934.04    5260.495000
4935.67    5200.042000
4937.31    5491.877000
4938.95    5390.839000
4940.58    5098.298000
4942.22    4892.355000
4943.85    5005.599000
4945.49    5003.462000
4947.13    5083.328000
4948.76    5007.788000
4950.40    5041.243000
4952.04    5290.198000
4953.67    5061.571000
4955.31    4898.701000
4956.94    5042.996000
4958.58    5003.203000
4960.22    4779.393000
4961.85    4754.022000
4963.49    4872.403000
4965.12    5097.667000
4966.76    5134.652000
4968.40    5211.880000
4970.03    5296.618000
4971.67    5243.545000
4973.31    4959.470000
4974.94    5183.600000
4976.58    5205.181000
4978.22    4993.665000
4979.85    5188.383000
4981.49    5445.597000
4983.12    5368.364000
4984.76    5371.072000
4986.40    5720.539000
4988.03    5762.109000
4989.67    5779.457000
4991.31    5813.860000
4992.94    5599.172000
4994.58    5757.996000
4996.21    5745.731000
4997.85    5335.559000
4999.49    5322.532000
5001.12    5401.333000
5002.76    5485.007000
5004.39    5310.243000
5006.03    5108.055000
5007.67    5253.251000
5009.30    5309.908000
5010.94    5261.089000
5012.57    5370.598000
5014.21    5315.335000
5015.85    5248.277000
5017.48    5372.844000
5019.12    5806.692000
5020.76    5747.875000
5022.39    5474.585000
5024.03    5498.312000
5025.66    5500.326000
5027.30    5203.489000
5028.94    5270.203000
5030.57    5197.732000
5032.21    5536.818000
5033.85    5529.785000
5035.48    5668.676000
5037.12    5690.989000
5038.75    5843.459000
5040.39    5628.124000
5042.03    5394.534000
5043.66    5735.637000
5045.30    5458.684000
5046.94    5478.764000
5048.57    5730.706000
5050.21    5650.759000
5051.84    5703.602000
5053.48    5484.774000
5055.12    5417.866000
5056.75    5262.596000
5058.39    5515.306000
5060.02    5328.169000
5061.66    5483.623000
5063.30    5262.502000
5064.93    5343.186000
5066.57    5215.386000
5068.21    5519.851000
5069.84    5194.606000
5071.48    5009.936000
5073.11    4914.950000
5074.75    5165.923000
5076.39    4892.600000
5078.02    5296.902000
5079.66    5101.326000
5081.30    5222.105000
5082.93    5434.928000
5084.57    5268.056000
5086.20    5335.849000
5087.84    5358.246000
5089.48    5090.554000
5091.11    5284.463000
5092.75    5075.183000
5094.39    5574.533000
5096.02    5709.649000
5097.66    5891.135000
5099.29    5660.676000
5100.93    5647.325000
5102.57    5162.769000
5104.20    4758.136000
5105.84    4973.055000
5107.48    4866.819000
5109.11    4776.639000
5110.75    4939.394000
5112.38    4944.884000
5114.02    4888.192000
5115.66    4847.134000
5117.29    5068.378000
5118.93    5290.434000
5120.56    5167.696000
5122.20    5159.368000
5123.84    5357.167000
5125.47    5316.805000
5127.11    5175.731000
5128.75    5003.992000
5130.38    4896.530000
5132.02    4864.365000
5133.65    5043.890000
5135.29    5212.354000
5136.93    5097.812000
5138.56    5075.497000
5140.20    5032.152000
5141.84    5248.684000
5143.47    5343.962000
5145.11    5308.196000
5146.74    5346.954000
5148.38    5616.156000
5150.02    5523.682000
5151.65    5436.306000
5153.29    5348.388000
5154.93    5334.662000
5156.56    5236.964000
5158.20    5091.480000
5159.83    4822.076000
5161.47    5037.829000
5163.11    5338.192000
5164.74    5345.283000
5166.38    5353.275000
5168.02    5274.225000
5169.65    5280.450000
5171.29    5009.291000
5172.92    4823.569000
5174.56    5059.739000
5176.20    4947.910000
5177.83    4935.121000
5179.47    5153.346000
5181.10    5022.902000
5182.74    5085.327000
5184.38    5279.763000
5186.01    5173.602000
5187.65    5161.520000
5189.29    5019.125000
5190.92    5093.774000
5192.56    4893.897000
5194.19    4759.659000
5195.83    4858.232000
5197.47    5071.765000
5199.10    4807.766000
5200.74    4901.975000
5202.38    4951.306000
5204.01    5166.237000
5205.65    5030.372000
5207.28    5027.792000
5208.92    5225.106000
5210.56    5300.823000
5212.19    4811.715000
5213.83    4804.203000
5215.47    4781.733000
5217.10    4659.049000
5218.74    4740.388000
5220.37    4731.134000
5222.01    4780.967000
5223.65    5002.306000
5225.28    4997.003000
5226.92    4869.629000
5228.56    4967.005000
5230.19    5009.542000
5231.83    4989.071000
5233.46    4940.646000
5235.10    4772.140000
5236.73    4714.027000
5238.37    4762.531000
5240.01    4933.401000
5241.64    4772.148000
5243.28    4489.779000
5244.92    4814.810000
5246.55    4599.382000
5248.19    4992.527000
5249.82    4735.851000
5251.46    4770.506000
5253.10    4740.686000
5254.73    4744.613000
5256.37    4785.534000
5258.01    4460.623000
5259.64    4143.663000
5261.28    4215.128000
5262.91    3771.819000
5264.55    3872.583000
5266.19    3838.008000
5267.82    3902.610000
5269.46    4132.801000
5271.10    4183.386000
5272.73    4147.152000
5274.37    4118.170000
5276.00    4196.246000
5277.64    4387.678000
5279.28    4136.020000
5280.91    4199.379000
5282.55    4714.894000
5284.19    4652.985000
5285.82    4407.462000
5287.46    4781.807000
5289.09    4859.150000
5290.73    5025.517000
5292.37    5134.896000
5294.00    4988.095000
5295.64    4816.742000
5297.27    4818.485000
5298.91    5061.110000
5300.55    4851.724000
5302.18    4672.428000
5303.82    4761.312000
5305.46    4712.930000
5307.09    4916.349000
5308.73    5154.798000
5310.36    5276.501000
5312.00    5341.122000
5313.64    5226.180000
5315.27    5183.194000
5316.91    5242.599000
5318.55    5313.021000
5320.18    5243.471000
5321.82    4986.430000
5323.45    5024.815000
5325.09    5102.448000
5326.73    5088.119000
5328.36    5170.237000
5330.00    5258.760000
5331.64    5461.806000
