#Wavelength     Flux    Sky Spectrum 
#[Angstrom]   [Counts]     [Counts]
4510.73    56.053772     9.883187
4511.98    42.258087    12.815067
4513.23    46.706959     9.070835
4514.47    41.707008    13.286545
4515.72    35.082626    18.342415
4516.97    42.247738    16.717070
4518.22    50.753967    11.765128
4519.47    37.597916    10.086836
4520.71    40.114777    10.317698
4521.96    40.479927    15.674333
4523.21    33.208519    18.365454
4524.46    38.053341    11.969784
4525.71    43.808201    10.916921
4526.95    35.028896    10.144010
4528.20    39.069836     7.908185
4529.45    51.678650     7.069063
4530.70    43.194248     8.941016
4531.95    39.581924    11.586239
4533.19    42.123554    11.892990
4534.44    42.442608     9.927108
4535.69    42.755386     9.197461
4536.94    47.929459    11.924870
4538.19    48.074680    13.650816
4539.43    49.030762     9.009787
4540.68    47.230598    10.805984
4541.93    45.468582    16.073713
4543.18    50.000938    10.998279
4544.42    48.339821     9.580477
4545.67    41.865906    11.841120
4546.92    36.937946    10.446474
4548.17    32.226223     9.798120
4549.42    29.173132    14.054190
4550.66    38.393272    11.515978
4551.91    42.084259    10.519816
4553.16    38.341827     7.779760
4554.41    31.355616     6.543863
4555.66    32.338963     7.639542
4556.90    47.480103     3.663425
4558.15    39.930035    13.248466
4559.40    39.892460    14.601363
4560.65    46.239597     9.938756
4561.90    48.143616     9.780732
4563.14    52.115742     8.009513
4564.39    39.100151     9.433001
4565.64    40.058800    11.100761
4566.89    45.417149    10.165271
4568.14    43.169819    10.963770
4569.38    39.520008    15.258307
4570.63    35.736828    15.251717
4571.88    43.752850    12.808792
4573.13    53.968498    10.897707
4574.38    46.722477     9.199558
4575.62    34.249687    11.272840
4576.87    43.089878    15.986485
4578.12    52.430168     8.896487
4579.37    50.369705    10.727166
4580.61    46.246937    13.400148
4581.86    48.749454     8.972739
4583.11    54.816246     4.626276
4584.36    55.292839     4.908636
4585.61    48.503288     6.722400
4586.85    58.361702     7.258127
4588.10    57.025818    10.022708
4589.35    45.379635    11.742299
4590.60    50.951027     8.717098
4591.85    56.828659     7.987414
4593.09    54.797150     8.514259
4594.34    47.759800    10.863744
4595.59    40.835674    12.382715
4596.84    39.501389    11.726741
4598.09    40.733017    12.229497
4599.33    36.057457    15.714858
4600.58    41.774380    15.681673
4601.83    50.934658     7.777628
4603.08    46.032452     6.330509
4604.33    37.010994    10.173230
4605.57    41.622536     7.930757
4606.82    46.654888     9.786016
4608.07    50.089188    10.842084
4609.32    57.772980    11.660597
4610.57    48.366577    11.897402
4611.81    37.082516    10.340276
4613.06    49.285889     7.676265
4614.31    51.465069     5.977719
4615.56    43.000370     7.627127
4616.80    45.732594     7.876127
4618.05    49.581837     9.331587
4619.30    42.931633    13.399683
4620.55    36.833614    14.802379
4621.80    42.612804    11.154860
4623.04    49.805771     9.420781
4624.29    38.747784    14.260615
4625.54    39.263092    15.398146
4626.79    58.924713     9.266295
4628.04    64.275162     7.935994
4629.28    43.733189    15.034989
4630.53    33.273998    11.205337
4631.78    45.723461     5.841853
4633.03    54.425167     5.187267
4634.28    50.711327     9.309270
4635.52    51.884972    10.008661
4636.77    61.406521     6.126116
4638.02    61.100327    12.513584
4639.27    61.159622    12.467438
4640.52    53.013397    12.537183
4641.76    48.858040     8.857386
4643.01    55.718594     4.867547
4644.26    64.397774     8.576711
4645.51    67.221321    10.947954
4646.76    51.792286    12.171667
4648.00    46.377033    10.197434
4649.25    46.947113    12.082182
4650.50    47.986435    16.501522
4651.75    48.359707    16.529106
4652.99    49.675961    12.736080
4654.24    64.443398     9.246264
4655.49    55.644115     8.222675
4656.74    44.728844     7.113958
4657.99    38.826370     7.809514
4659.23    45.027039     6.849910
4660.48    55.378548     5.631979
4661.73    41.153347    12.912653
4662.98    45.868992    11.949917
4664.23    53.367016     7.548183
4665.47    52.833290     8.461770
4666.72    49.940857    12.895178
4667.97    46.881378    15.333141
4669.22    46.551884    13.626782
4670.47    57.247501     9.143080
4671.71    58.801338    11.015995
4672.96    49.602398    13.649906
4674.21    45.078865    14.020587
4675.46    50.904659    14.161505
4676.71    51.430187    13.640908
4677.95    39.846252    12.009038
4679.20    43.480927    15.198907
4680.45    53.237312    19.885990
4681.70    55.036194    16.790169
4682.95    57.279362    13.122186
4684.19    61.445709    14.609528
4685.44    54.010040    16.179449
4686.69    42.971863    16.984196
4687.94    51.829926    16.571259
4689.18    41.394726    12.650158
4690.43    48.393875    13.721968
4691.68    54.694450    13.795989
4692.93    44.346992    11.009174
4694.18    51.647640    13.038621
4695.42    51.551731    11.152747
4696.67    41.900295    11.219864
4697.92    39.272610    15.234930
4699.17    44.527229    14.080997
4700.42    57.186779     7.372241
4701.66    64.173683     7.162735
4702.91    57.125496    13.002421
4704.16    66.828522     7.531415
4705.41    55.493397     8.473051
4706.66    47.451733    13.034759
4707.90    45.063026    13.742734
4709.15    48.136421    13.093244
4710.40    56.103466    14.105720
4711.65    52.004322    13.998910
4712.90    59.028481    13.991294
4714.14    58.148884    13.636418
4715.39    48.009037    10.957321
4716.64    49.343475    10.569311
4717.89    52.544151    12.126337
4719.14    40.616692    13.591156
4720.38    40.594990    17.100904
4721.63    56.028233    10.334106
4722.88    55.764317    15.900593
4724.13    51.807323    14.834941
4725.38    57.130280    11.430585
4726.62    60.887630    13.560616
4727.87    52.813271    11.252080
4729.12    42.997280    16.914293
4730.37    51.615284    12.153191
4731.61    55.840122    12.297079
4732.86    62.167614    14.727471
4734.11    66.759628    13.243695
4735.36    55.595009    13.570262
4736.61    47.222233    15.968086
4737.85    61.440674    13.131484
4739.10    64.875526    14.727476
4740.35    56.838123    13.077399
4741.60    50.354340    13.050883
4742.85    48.770927    17.389675
4744.09    50.702003    17.445841
4745.34    53.999592    11.971546
4746.59    53.139809     8.943184
4747.84    63.140301    11.497899
4749.09    59.999157    15.517871
4750.33    51.493011    17.796200
4751.58    46.419743    15.636890
4752.83    41.517696    10.558542
4754.08    53.491844     9.071717
4755.33    59.004650     7.610129
4756.57    58.218372    12.200830
4757.82    62.424847    13.907862
4759.07    56.238930    10.521494
4760.32    51.534706     8.942189
4761.57    72.132957     8.894561
4762.81    72.090828     7.006342
4764.06    58.273243     9.639149
4765.31    51.523151    14.266251
4766.56    57.654724    13.837095
4767.80    64.377052    11.796984
4769.05    63.712730    11.712581
4770.30    63.005005    10.008023
4771.55    64.542404    11.972804
4772.80    66.829094     9.681303
4774.04    60.400997     9.955406
4775.29    51.290386    10.872640
4776.54    49.084988    12.083349
4777.79    52.655403    16.260979
4779.04    58.679077    15.997815
4780.28    65.443657    17.005087
4781.53    71.131195    15.222849
4782.78    66.550110    12.826505
4784.03    55.902824    11.396063
4785.28    50.289303    13.069523
4786.52    51.201099    16.966764
4787.77    54.879555    13.165039
4789.02    54.561764    15.984874
4790.27    64.447662    16.371609
4791.52    68.101898    14.187195
4792.76    61.244064    14.018604
4794.01    60.017956    12.480043
4795.26    61.895725     9.964182
4796.51    67.183136    14.416334
4797.76    68.041534    13.726210
4799.00    60.327065    13.944107
4800.25    52.611572    14.559482
4801.50    52.628395    14.748022
4802.75    59.728928    16.777418
4803.99    69.701500     9.528274
4805.24    64.222565    10.572252
4806.49    55.839062    13.856897
4807.74    60.137150     9.960613
4808.99    64.604286     7.612649
4810.23    59.702648    13.939485
4811.48    62.834366    16.092688
4812.73    64.475815    11.321645
4813.98    52.371178    14.575252
4815.23    48.124886    18.166952
4816.47    59.825127    12.714036
4817.72    75.438049     6.438693
4818.97    80.672447     8.081581
4820.22    66.731064     9.580103
4821.47    73.123238    13.483671
4822.71    68.549660    12.415974
4823.96    57.490341    14.495117
4825.21    51.122173    19.522676
4826.46    48.121208    16.558416
4827.71    67.833435    13.996414
4828.95    69.604736    15.696754
4830.20    59.244755    15.237828
4831.45    59.272060    16.108553
4832.70    67.451660    16.170633
4833.95    68.523422    12.706800
4835.19    62.179222    13.933991
4836.44    58.596355    16.634956
4837.69    71.870705    16.666382
4838.94    77.141281    10.821937
4840.18    62.763271     8.600735
4841.43    51.486584    12.435142
4842.68    58.175560    13.051366
4843.93    58.862484    17.331467
4845.18    45.806252    18.583239
4846.42    74.072571    11.912482
4847.67    88.880249     9.922325
4848.92    74.786247    12.877953
4850.17    85.546768    11.127565
4851.42    60.339073    16.578848
4852.66    63.555241    14.452019
4853.91    80.008797     7.050253
4855.16    75.233543     8.693764
4856.41    63.919636    14.667061
4857.66    68.344238    14.100141
4858.90    67.509430    16.916636
4860.15    62.472717    13.950254
4861.40    63.722435     7.869688
4862.65    57.681808     8.991894
4863.90    49.550262    13.785889
4865.14    58.243439    12.782431
4866.39    66.140648    11.068305
4867.64    58.397640    11.063177
4868.89    61.108742    10.444037
4870.14    65.554283    13.207045
4871.38    66.193336    16.086290
4872.63    69.848320    15.106558
4873.88    63.531212    18.645832
4875.13    59.817738    20.547644
4876.37    51.444920    16.804001
4877.62    61.571102    14.934854
4878.87    77.625504    14.041801
4880.12    71.474136    13.625960
4881.37    71.768066    22.686253
4882.61    73.488541    17.655762
4883.86    75.455894    12.031322
4885.11    75.556839    12.735547
4886.36    73.412186    12.267945
4887.61    75.613731     8.834386
4888.85    81.547241     9.666632
4890.10    65.936165    13.355253
4891.35    49.785534    18.443970
4892.60    59.346619    16.682663
4893.85    72.299995    11.351931
4895.09    62.595455    12.017476
4896.34    63.311932    11.762414
4897.59    66.761726    15.484282
4898.84    66.263115    18.219349
4900.09    69.915688    17.349871
4901.33    78.575546    15.728792
4902.58    78.900085    16.028801
4903.83    69.322327    18.025045
4905.08    68.367821    16.456158
4906.33    75.794678    20.880173
4907.57    78.912292    18.077719
4908.82    77.034935     9.173563
4910.07    77.169525    16.939400
4911.32    69.211884    10.235508
4912.57    70.120354    12.943177
4913.81    74.885185    19.053383
4915.06    72.234779    16.668232
4916.31    66.710510    14.063333
4917.56    70.039223    16.089001
4918.80    81.708656    12.015805
4920.05    88.492699    11.995341
4921.30    88.780632    12.208646
4922.55    85.930000    13.492264
4923.80    84.114029    20.013308
4925.04    88.674583    14.693919
4926.29    77.408821    15.838059
4927.54    77.780945    15.883969
4928.79    86.683746    11.603817
4930.04    81.599869    12.848520
4931.28    74.151207    18.023272
4932.53    76.568344    13.293476
4933.78    80.270592    18.617247
4935.03    78.137856    23.768803
4936.28    76.333145    17.857817
4937.52    80.195663    11.811211
4938.77    79.159660    11.805489
4940.02    69.909103    12.927107
4941.27    74.685646    17.153049
4942.52    78.754288    20.647837
4943.76    73.178925    18.289677
4945.01    80.712563    15.000858
4946.26    79.238167    18.013025
4947.51    70.246330    19.889101
4948.76    66.749413    20.462709
4950.00    75.480911    20.881691
4951.25    85.031029    21.108631
4952.50    79.971947    24.077667
4953.75    88.515518    20.028265
4954.99    94.211426    17.288290
4956.24    91.114586    15.849728
4957.49    91.140572    12.988257
4958.74    89.672699    16.526066
4959.99    80.004158    20.581905
4961.23    84.586662    20.249098
4962.48    90.645844    21.126823
4963.73    94.514198    21.070749
4964.98    105.069618    15.993170
4966.23    84.992905    21.306128
4967.47    70.291611    18.351685
4968.72    85.945801    13.697581
4969.97    103.989456    15.977501
4971.22    94.161873    20.248098
4972.47    81.513466    23.879456
4973.71    86.318733    21.873283
4974.96    88.157623    17.750547
4976.21    91.392006    17.722599
4977.46    102.413879    20.008415
4978.71    95.515923    19.580338
4979.95    85.131660    25.956562
4981.20    86.802742    23.507431
4982.45    89.710838    18.122789
4983.70    82.536095    20.407198
4984.95    76.899948    20.265427
4986.19    86.578896    14.718355
4987.44    108.012566    11.458504
4988.69    99.402206    16.100912
4989.94    80.673386    22.803659
4991.18    105.198975    20.312510
4992.43    107.950096    11.382339
4993.68    85.148438    17.300562
4994.93    78.895226    21.844456
4996.18    87.064735    17.576921
4997.42    81.984268    18.991810
4998.67    92.404007    17.188379
4999.92    96.140587    12.269176
5001.17    92.215240    14.991184
5002.42    98.394707    20.314199
5003.66    111.022812    15.941014
5004.91    101.915955    12.015880
5006.16    93.673744    14.410311
5007.41    86.518341    16.267933
5008.66    76.667679    16.347143
5009.90    79.331322    18.000263
5011.15    105.566536    16.330814
5012.40    117.856422    16.527777
5013.65    101.507881    20.054092
5014.90    93.143661    18.183603
5016.14    106.966385    13.076714
5017.39    88.098610    23.682011
5018.64    83.015862    20.555590
5019.89    86.435196    17.715012
5021.14    81.371429    22.726978
5022.38    80.060135    20.965122
5023.63    91.078217    18.034750
5024.88    92.023170    20.392738
5026.13    83.908119    25.280767
5027.37    86.948822    23.317934
5028.62    102.904007    15.038044
5029.87    101.087883    16.491127
5031.12    88.972038    15.085297
5032.37    91.194450     9.234996
5033.61    100.425758     8.948931
5034.86    87.902779    16.732910
5036.11    67.568649    20.016184
5037.36    86.559212    19.127954
5038.61    101.321266    17.133886
5039.85    88.618179    17.429901
5041.10    90.669556    20.014980
5042.35    92.598557    17.028143
5043.60    94.928459    16.198435
5044.85    100.627838    19.354071
5046.09    109.342628    19.558006
5047.34    114.711563    15.840471
5048.59    101.128876    21.850504
5049.84    95.550774    22.923016
5051.09    110.879265    15.114683
5052.33    125.190079     9.898532
5053.58    112.434166    12.905885
5054.83    88.094742    18.836056
5056.08    76.490562    22.522728
5057.33    84.848450    22.835640
5058.57    101.151131    20.970381
5059.82    109.647621    17.279516
5061.07    107.406998    12.175037
5062.32    101.537010    12.061500
5063.56    110.063698    16.897787
5064.81    128.136322    18.158947
5066.06    106.721901    13.902739
5067.31    96.778206    14.279581
5068.56    104.254669    20.924389
5069.80    99.501831    24.944632
5071.05    86.409843    21.332308
5072.30    95.531052    22.514780
5073.55    109.677658    25.114388
5074.80    103.057922    24.546867
5076.04    83.733383    22.985306
5077.29    86.665596    23.138374
5078.54    100.013931    21.414225
5079.79    97.677010    19.163874
5081.04    92.159744    20.819637
5082.28    104.722130    25.779104
5083.53    95.612915    25.651920
5084.78    88.765022    24.406822
5086.03    92.616470    23.543694
5087.28    104.881866    21.864979
5088.52    126.478859    21.579044
5089.77    109.850487    24.549580
5091.02    87.486877    19.796566
5092.27    94.245934    12.144485
5093.52    109.981956    14.820267
5094.76    98.742867    18.758276
5096.01    111.583397    17.281019
5097.26    123.970901    14.050608
5098.51    118.813766    14.181868
5099.76    133.730957    15.949516
5101.00    115.787186    15.810902
5102.25    84.310760    24.565598
5103.50    81.512016    33.862644
5104.75    101.796455    30.107496
5105.99    96.008522    27.144611
5107.24    98.303848    21.815851
5108.49    104.685448    16.249750
5109.74    105.894402    15.067299
5110.99    115.361397    17.358562
5112.23    101.157791    21.406893
5113.48    90.668221    24.042744
5114.73    98.341927    23.645693
5115.98    101.303497    22.930281
5117.23    90.326416    26.705208
5118.47    105.907158    28.852587
5119.72    123.477951    24.545044
5120.97    117.655991    16.378727
5122.22    113.456924    13.184669
5123.47    88.412590    21.200256
5124.71    94.399368    25.177299
5125.96    128.718475    21.442156
5127.21    126.830208    20.185400
5128.46    101.850677    16.956530
5129.71    98.018723    16.109646
5130.95    101.382385    19.230654
5132.20    94.090195    23.069042
5133.45    111.889587    24.430317
5134.70    127.665382    21.438183
5135.95    118.731575    20.370953
5137.19    100.827568    23.327349
5138.44    104.324120    22.832844
5139.69    110.791100    16.403742
5140.94    91.608444    20.558485
5142.18    75.751816    26.637547
5143.43    97.605057    17.548328
5144.68    107.543022    15.505464
5145.93    117.302681    20.346699
5147.18    115.936554    21.143705
5148.42    96.703300    18.028637
5149.67    98.193535    23.552851
5150.92    112.671791    25.635412
5152.17    104.725159    25.116749
5153.42    88.368118    24.708668
5154.66    110.256607    21.185148
5155.91    116.714798    23.022203
5157.16    116.441422    22.835588
5158.41    124.602570    16.665106
5159.66    125.998619    12.837837
5160.90    110.755569    17.378956
5162.15    106.817108    14.645687
5163.40    110.716530    13.859497
5164.65    104.184052    24.834003
5165.90    103.479462    21.635433
5167.14    108.436066    20.945465
5168.39    102.484512    24.947355
5169.64    94.298943    22.780115
5170.89    114.668068    15.289059
5172.14    112.681282    14.440684
5173.38    114.948219    18.824270
5174.63    137.378616    21.004805
5175.88    133.707184    18.774265
5177.13    111.919724    15.623699
5178.37    89.209740    18.453482
5179.62    88.578293    23.220137
5180.87    110.165298    20.546698
5182.12    99.567490    17.773092
5183.37    112.583549    12.982419
5184.61    134.595810    13.534210
5185.86    113.053551    24.359301
5187.11    121.054802    23.918484
5188.36    114.427162    20.956015
5189.61    92.574921    22.765303
5190.85    91.076042    26.752069
5192.10    87.177017    30.366463
5193.35    95.796371    26.427341
5194.60    104.279633    23.229172
5195.85    99.990150    27.955217
5197.09    106.361526    30.086811
5198.34    100.779762    34.760796
5199.59    89.345558    42.844170
5200.84    94.389275    43.780510
5202.09    112.971451    29.199379
5203.33    113.327545    25.717245
5204.58    107.434555    27.652975
5205.83    112.293083    22.721909
5207.08    112.923889    20.033337
5208.33    101.669762    21.362242
5209.57    96.160690    26.448463
5210.82    104.806526    28.737822
5212.07    109.303154    21.464134
5213.32    98.071678    19.156620
5214.56    92.204498    20.165701
5215.81    102.187119    21.345501
5217.06    113.779961    24.452515
5218.31    129.256027    17.900345
5219.56    129.852478    14.011501
5220.80    118.265663    22.406437
5222.05    117.745773    31.774216
5223.30    110.244713    25.986332
5224.55    119.873856    19.652536
5225.80    133.179565    23.845226
5227.04    107.889793    27.673792
5228.29    94.929695    19.151686
5229.54    92.293808    15.507984
5230.79    97.194397    20.228256
5232.04    114.917351    17.593948
5233.28    99.028000    16.529501
5234.53    96.087296    17.400246
5235.78    116.422371    22.275419
