#Wavelength     Flux
#[Angstrom]   [Counts]
3923.59     0.000000
3925.22     0.000000
3926.84     0.000000
3928.46     0.000000
3930.09     0.000000
3931.71     0.000000
3933.34     0.000000
3934.96     0.000000
3936.58     0.000000
3938.21     0.000000
3939.83     0.000000
3941.46     0.000000
3943.08    -1347.829000
3944.70    6901.983000
3946.33    16792.810000
3947.95    12826.690000
3949.58    12258.100000
3951.20    11411.250000
3952.82    11469.770000
3954.45    10073.900000
3956.07    8209.223000
3957.70    6998.713000
3959.32    6052.355000
3960.94    6440.595000
3962.57    7380.750000
3964.19    8066.675000
3965.82    8802.434000
3967.44    10261.800000
3969.06    11249.880000
3970.69    11491.270000
3972.31    12645.800000
3973.94    14591.810000
3975.56    14635.260000
3977.18    15074.970000
3978.81    16060.860000
3980.43    15826.830000
3982.06    14282.480000
3983.68    14777.920000
3985.30    14277.880000
3986.93    13367.360000
3988.55    11338.040000
3990.18    9527.492000
3991.80    8705.375000
3993.43    8377.685000
3995.05    7970.591000
3996.67    7973.066000
3998.30    8829.408000
3999.92    9997.748000
4001.55    12333.220000
4003.17    14665.470000
4004.79    15047.690000
4006.42    17405.770000
4008.04    18562.160000
4009.67    18743.730000
4011.29    17819.630000
4012.91    18886.270000
4014.54    18573.600000
4016.16    19118.030000
4017.79    19938.230000
4019.41    19061.690000
4021.03    19737.870000
4022.66    20508.890000
4024.28    20811.950000
4025.91    22517.700000
4027.53    20593.720000
4029.15    20517.940000
4030.78    21466.030000
4032.40    21515.700000
4034.03    20757.270000
4035.65    21610.380000
4037.27    22462.180000
4038.90    22579.760000
4040.52    21840.290000
4042.15    21865.210000
4043.77    21743.140000
4045.39    23197.870000
4047.02    22793.210000
4048.64    23058.110000
4050.27    22827.800000
4051.89    22092.560000
4053.51    22562.510000
4055.14    22309.460000
4056.76    21457.880000
4058.39    21815.570000
4060.01    20098.400000
4061.64    20210.070000
4063.26    21233.610000
4064.88    21628.400000
4066.51    22794.120000
4068.13    21917.890000
4069.76    21400.750000
4071.38    20440.410000
4073.00    20317.750000
4074.63    21325.700000
4076.25    20874.190000
4077.88    21971.590000
4079.50    21535.760000
4081.12    21638.730000
4082.75    21381.590000
4084.37    19553.410000
4086.00    20408.910000
4087.62    20432.840000
4089.24    19303.650000
4090.87    20203.700000
4092.49    20167.680000
4094.12    19481.350000
4095.74    20516.680000
4097.36    21026.920000
4098.99    20760.780000
4100.61    20639.890000
4102.24    19895.450000
4103.86    19640.460000
4105.48    20664.230000
4107.11    21456.040000
4108.73    21817.800000
4110.36    22262.800000
4111.98    22194.080000
4113.60    23050.190000
4115.23    23390.490000
4116.85    23304.120000
4118.48    22717.190000
4120.10    22501.190000
4121.73    21047.440000
4123.35    21303.630000
4124.97    19154.130000
4126.60    19253.940000
4128.22    18826.480000
4129.85    18482.470000
4131.47    17894.670000
4133.09    18623.370000
4134.72    20089.120000
4136.34    20578.800000
4137.97    20732.840000
4139.59    21561.010000
4141.21    22046.410000
4142.84    21850.290000
4144.46    22606.030000
4146.09    21576.670000
4147.71    21187.620000
4149.33    21324.170000
4150.96    21051.150000
4152.58    21720.600000
4154.21    22331.220000
4155.83    21825.140000
4157.45    21243.940000
4159.08    20779.460000
4160.70    21571.410000
4162.33    20749.480000
4163.95    20349.400000
4165.57    21879.300000
4167.20    22140.080000
4168.82    21767.900000
4170.45    20519.220000
4172.07    21155.920000
4173.69    20544.440000
4175.32    19366.130000
4176.94    20537.260000
4178.57    20180.180000
4180.19    20396.590000
4181.81    20062.710000
4183.44    19899.370000
4185.06    20698.460000
4186.69    21045.760000
4188.31    20696.940000
4189.94    21251.320000
4191.56    21833.620000
4193.18    21389.530000
4194.81    21376.310000
4196.43    21383.830000
4198.06    20291.140000
4199.68    19633.930000
4201.30    19221.300000
4202.93    19705.450000
4204.55    19976.650000
4206.18    19635.980000
4207.80    20582.520000
4209.42    20305.270000
4211.05    20289.540000
4212.67    21223.040000
4214.30    21366.200000
4215.92    21688.330000
4217.54    22325.480000
4219.17    22031.190000
4220.79    21126.290000
4222.41    20925.290000
4224.04    21234.430000
4225.66    20260.840000
4227.29    19784.720000
4228.91    21513.250000
4230.54    21658.210000
4232.16    20940.880000
4233.78    21875.300000
4235.41    22665.020000
4237.03    23155.730000
4238.66    24130.950000
4240.28    23885.990000
4241.90    23123.410000
4243.53    23174.110000
4245.15    22637.550000
4246.78    22903.350000
4248.40    22979.840000
4250.02    22847.310000
4251.65    22109.650000
4253.27    20856.280000
4254.90    19888.000000
4256.52    20388.530000
4258.14    21244.410000
4259.77    21511.310000
4261.39    22483.550000
4263.02    23534.110000
4264.64    23065.380000
4266.26    22680.540000
4267.89    23046.680000
4269.51    23507.320000
4271.14    24511.010000
4272.76    24521.660000
4274.39    25648.700000
4276.01    24295.370000
4277.63    23136.240000
4279.26    23202.200000
4280.88    22842.850000
4282.51    22946.230000
4284.13    23175.400000
4285.75    23880.500000
4287.38    23927.260000
4289.00    23434.710000
4290.62    25079.000000
4292.25    25092.120000
4293.87    24520.540000
4295.50    24402.130000
4297.12    23646.630000
4298.74    23184.850000
4300.37    21518.380000
4301.99    21302.740000
4303.62    22121.570000
4305.24    22331.690000
4306.86    22882.520000
4308.49    24104.810000
4310.11    23537.690000
4311.74    24042.070000
4313.36    21401.990000
4314.99    21522.400000
4316.61    22205.770000
4318.23    22373.600000
4319.86    21702.350000
4321.48    20512.140000
4323.11    20997.600000
4324.73    20716.000000
4326.35    19376.680000
4327.98    18320.770000
4329.60    17789.590000
4331.23    16822.360000
4332.85    17081.720000
4334.47    17073.540000
4336.10    16741.380000
4337.72    18325.420000
4339.35    18310.820000
4340.97    19457.130000
4342.59    22583.110000
4344.22    23311.080000
4345.84    25226.110000
4347.47    26438.930000
4349.09    26495.080000
4350.71    25714.320000
4352.34    24220.310000
4353.96    23611.510000
4355.59    23273.790000
4357.21    24746.750000
4358.84    26116.980000
4360.46    26670.180000
4362.08    26065.170000
4363.71    27412.300000
4365.33    24583.540000
4366.95    23133.160000
4368.58    22726.850000
4370.20    22051.420000
4371.83    22744.200000
4373.45    23356.400000
4375.07    25051.460000
4376.70    25501.210000
4378.32    26565.390000
4379.95    26305.170000
4381.57    24774.460000
4383.19    24830.630000
4384.82    25336.790000
4386.44    26317.520000
4388.07    27155.620000
4389.69    26561.910000
4391.31    27732.170000
4392.94    28178.920000
4394.56    28516.960000
4396.19    28328.940000
4397.81    27385.040000
4399.44    26960.040000
4401.06    26314.840000
4402.68    26260.650000
4404.31    24728.680000
4405.93    26431.810000
4407.56    25066.990000
4409.18    24612.680000
4410.80    24025.290000
4412.43    23639.470000
4414.05    23693.200000
4415.68    23215.300000
4417.30    23410.340000
4418.92    23226.950000
4420.55    24502.510000
4422.17    25120.000000
4423.80    26028.410000
4425.42    27098.410000
4427.04    26208.790000
4428.67    25586.460000
4430.29    26168.180000
4431.92    25607.740000
4433.54    24891.740000
4435.16    25100.930000
4436.79    24517.840000
4438.41    24465.870000
4440.04    26696.340000
4441.66    27784.000000
4443.28    27376.210000
4444.91    27900.190000
4446.53    28106.050000
4448.16    28526.800000
4449.78    28058.630000
4451.40    27819.920000
4453.03    28252.430000
4454.65    28376.310000
4456.28    27724.600000
4457.90    27864.980000
4459.52    28243.950000
4461.15    28880.730000
4462.77    27609.820000
4464.40    27933.760000
4466.02    27756.750000
4467.65    28002.060000
4469.27    28875.070000
4470.89    28617.340000
4472.52    27916.950000
4474.14    28515.960000
4475.77    30228.960000
4477.39    29973.780000
4479.01    29472.110000
4480.64    29945.440000
4482.26    29553.470000
4483.89    28002.000000
4485.51    27389.280000
4487.13    26774.740000
4488.76    25707.960000
4490.38    26150.240000
4492.01    26973.120000
4493.63    26866.530000
4495.25    27225.040000
4496.88    27151.130000
4498.50    28258.270000
4500.13    29195.410000
4501.75    29211.820000
4503.38    30077.870000
4505.00    30387.110000
4506.62    29832.870000
4508.25    29649.150000
4509.87    29225.360000
4511.49    30274.140000
4513.12    31026.470000
4514.74    30666.630000
4516.37    30846.790000
4517.99    30285.040000
4519.61    29891.710000
4521.24    30196.480000
4522.86    29697.480000
4524.49    28583.040000
4526.11    28032.990000
4527.73    29100.580000
4529.36    31071.560000
4530.98    32186.040000
4532.61    32292.630000
4534.23    32372.100000
4535.85    32283.500000
4537.48    32451.720000
4539.10    32081.370000
4540.73    32268.240000
4542.35    32845.890000
4543.98    31485.130000
4545.60    30617.710000
4547.22    31785.240000
4548.85    32480.050000
4550.47    31010.940000
4552.10    31339.610000
4553.72    30722.850000
4555.34    29020.400000
4556.97    28159.670000
4558.59    27376.570000
4560.22    27431.880000
4561.84    26970.550000
4563.46    27309.360000
4565.09    27785.000000
4566.71    28289.190000
4568.34    29647.260000
4569.96    30230.840000
4571.58    30047.470000
4573.21    29841.970000
4574.83    28520.980000
4576.46    29176.340000
4578.08    29736.480000
4579.70    28051.040000
4581.33    28375.390000
4582.95    29920.770000
4584.58    29807.300000
4586.20    31489.270000
4587.82    32130.760000
4589.45    31982.610000
4591.07    32170.850000
4592.70    32197.470000
4594.32    33037.470000
4595.94    32376.190000
4597.57    32626.090000
4599.19    32354.930000
4600.82    32442.340000
4602.44    33271.280000
4604.06    31691.530000
4605.69    32333.150000
4607.31    31507.130000
4608.94    30698.530000
4610.56    30698.890000
4612.19    31075.850000
4613.81    30465.900000
4615.43    29516.000000
4617.06    30956.040000
4618.68    30923.480000
4620.31    30690.310000
4621.93    30869.710000
4623.55    30004.790000
4625.18    30646.590000
4626.80    30942.440000
4628.43    29258.650000
4630.05    30316.360000
4631.67    30431.500000
4633.30    30479.460000
4634.92    30368.990000
4636.55    31196.470000
4638.17    31096.860000
4639.79    31457.830000
4641.42    32913.360000
4643.04    33879.560000
4644.67    32284.860000
4646.29    33224.620000
4647.91    33429.860000
4649.54    33870.110000
4651.16    33981.630000
4652.79    32249.150000
4654.41    33695.930000
4656.03    32945.740000
4657.66    32950.400000
4659.28    32435.800000
4660.91    32965.210000
4662.53    33299.600000
4664.15    32261.710000
4665.78    31184.870000
4667.40    31680.210000
4669.03    29676.420000
4670.65    31743.220000
4672.27    30279.780000
4673.90    30274.360000
4675.52    29152.280000
4677.15    28648.130000
4678.77    29004.470000
4680.40    28532.730000
4682.02    28761.950000
4683.64    30324.210000
4685.27    30547.220000
4686.89    29746.240000
4688.52    32665.740000
4690.14    31187.890000
4691.76    30844.510000
4693.39    29523.440000
4695.01    29505.590000
4696.64    29288.090000
4698.26    28453.250000
4699.88    27182.340000
4701.51    27670.490000
4703.13    28597.650000
4704.76    27341.020000
4706.38    30187.520000
4708.00    29924.920000
4709.63    30180.900000
4711.25    29065.650000
4712.88    28762.970000
4714.50    29036.540000
4716.12    28860.870000
4717.75    29838.460000
4719.37    29876.030000
4721.00    29093.960000
4722.62    28452.630000
4724.24    28094.050000
4725.87    28438.120000
4727.49    29089.320000
4729.12    28368.890000
4730.74    27788.070000
4732.36    28932.420000
4733.99    28222.480000
4735.61    27029.690000
4737.24    27868.440000
4738.86    27808.910000
4740.48    28788.480000
4742.11    28219.300000
4743.73    30050.660000
4745.36    29477.300000
4746.98    28399.740000
4748.60    31044.210000
4750.23    31910.570000
4751.85    31331.110000
4753.48    32611.100000
4755.10    31078.710000
4756.73    32301.620000
4758.35    31236.030000
4759.97    30928.370000
4761.60    29714.800000
4763.22    29181.460000
4764.85    29149.140000
4766.47    29835.150000
4768.09    29624.140000
4769.72    31203.630000
4771.34    30173.760000
4772.97    31123.440000
4774.59    31753.220000
4776.21    32642.210000
4777.84    31900.080000
4779.46    31876.530000
4781.09    30738.730000
4782.71    31505.870000
4784.33    30641.710000
4785.96    29857.790000
4787.58    30741.020000
4789.21    30331.410000
4790.83    30449.110000
4792.45    31225.960000
4794.08    30262.220000
4795.70    30208.990000
4797.33    30329.170000
4798.95    29640.400000
4800.57    29742.460000
4802.20    29975.210000
4803.82    32330.820000
4805.45    32809.000000
4807.07    31458.370000
4808.69    32178.840000
4810.32    32726.800000
4811.94    32240.440000
4813.57    31753.970000
4815.19    29705.630000
4816.81    29744.750000
4818.44    31124.790000
4820.06    30764.870000
4821.69    30679.290000
4823.31    32198.680000
4824.94    32070.930000
4826.56    32975.830000
4828.18    32946.070000
4829.81    32321.810000
4831.43    32084.460000
4833.06    33158.920000
4834.68    33220.590000
4836.30    32706.810000
4837.93    30140.510000
4839.55    30661.150000
4841.18    30906.250000
4842.80    31575.580000
4844.42    32825.470000
4846.05    31349.820000
4847.67    32129.200000
4849.30    31035.240000
4850.92    32379.160000
4852.54    33045.000000
4854.17    31636.210000
4855.79    31402.420000
4857.42    30808.620000
4859.04    31376.120000
4860.66    31720.270000
4862.29    30961.950000
4863.91    30911.180000
4865.54    31137.910000
4867.16    30950.250000
4868.78    29753.740000
4870.41    30708.850000
4872.03    31312.340000
4873.66    30202.510000
4875.28    30504.300000
4876.90    31587.400000
4878.53    31040.900000
4880.15    30691.970000
4881.78    30885.200000
4883.40    30075.690000
4885.02    28468.860000
4886.65    28470.370000
4888.27    28696.200000
4889.90    27090.820000
4891.52    25579.120000
4893.15    26144.490000
4894.77    25182.670000
4896.39    25119.390000
4898.02    25958.610000
4899.64    26657.550000
4901.27    27541.510000
4902.89    26928.720000
4904.51    27335.520000
4906.14    27479.680000
4907.76    28422.190000
4909.39    28588.980000
4911.01    28726.050000
4912.63    30207.820000
4914.26    30201.230000
4915.88    29117.350000
4917.51    29238.230000
4919.13    28654.350000
4920.75    28392.650000
4922.38    28717.140000
4924.00    29584.140000
4925.63    30075.410000
4927.25    30254.490000
4928.87    31283.490000
4930.50    31511.770000
4932.12    30717.370000
4933.75    30782.230000
4935.37    32549.050000
4936.99    31789.380000
4938.62    30853.370000
4940.24    31782.240000
4941.87    31010.700000
4943.49    30875.540000
4945.11    31101.090000
4946.74    30571.980000
4948.36    30481.520000
4949.99    29917.160000
4951.61    29754.200000
4953.23    28579.920000
4954.86    28593.610000
4956.48    29313.820000
4958.11    29816.650000
4959.73    30952.690000
4961.35    30129.040000
4962.98    30914.320000
4964.60    32267.130000
4966.23    32376.520000
4967.85    30899.350000
4969.48    30739.260000
4971.10    31173.850000
4972.72    30456.650000
4974.35    31064.020000
4975.97    31457.100000
4977.60    32592.840000
4979.22    32438.650000
4980.84    31692.820000
4982.47    32841.380000
4984.09    33334.000000
4985.72    32635.500000
4987.34    31759.110000
4988.96    30512.040000
4990.59    30356.420000
4992.21    29948.490000
4993.84    29825.210000
4995.46    30838.670000
4997.08    30705.410000
4998.71    30436.630000
5000.33    30497.120000
5001.96    29726.170000
5003.58    29542.660000
5005.20    28941.290000
5006.83    29708.810000
5008.45    30317.410000
5010.08    30133.620000
5011.70    29517.470000
5013.32    29109.520000
5014.95    28435.710000
5016.57    27692.670000
5018.20    27666.150000
5019.82    28381.870000
5021.44    28122.290000
5023.07    29060.050000
5024.69    29644.250000
5026.32    29268.200000
5027.94    28205.860000
5029.56    28334.770000
5031.19    29439.050000
5032.81    28496.720000
5034.44    27675.820000
5036.06    26596.770000
5037.69    27236.840000
5039.31    27411.080000
5040.93    25480.760000
5042.56    26280.850000
5044.18    27397.790000
5045.81    27096.890000
5047.43    26242.500000
5049.05    26653.080000
5050.68    27023.330000
5052.30    26113.910000
5053.93    27035.210000
5055.55    27483.780000
5057.17    26932.600000
5058.80    27212.840000
5060.42    27941.000000
5062.05    28567.870000
5063.67    29406.540000
5065.29    30265.460000
5066.92    28589.010000
5068.54    28333.450000
5070.17    28264.000000
5071.79    27348.270000
5073.41    25876.860000
5075.04    25609.890000
5076.66    26322.450000
5078.29    27633.840000
5079.91    28488.530000
5081.53    28375.300000
5083.16    27874.870000
5084.78    27792.640000
5086.41    28200.010000
5088.03    27907.050000
5089.65    28068.690000
5091.28    29653.460000
5092.90    30469.700000
5094.53    30086.370000
5096.15    30972.260000
5097.77    31131.350000
5099.40    29188.230000
5101.02    28194.570000
5102.65    28212.750000
5104.27    28505.070000
5105.90    28147.080000
5107.52    28416.200000
5109.14    28289.140000
5110.77    26616.320000
5112.39    26295.010000
5114.02    26548.880000
5115.64    26308.940000
5117.26    26582.080000
5118.89    26866.200000
5120.51    26792.800000
5122.14    28269.050000
5123.76    28621.420000
5125.38    27682.290000
5127.01    28282.700000
5128.63    29001.650000
5130.26    29317.270000
5131.88    28369.380000
5133.50    27509.460000
5135.13    27062.710000
5136.75    26872.380000
5138.38    27828.860000
5140.00    27130.630000
5141.62    27349.160000
5143.25    27054.480000
5144.87    27286.020000
5146.50    28418.100000
5148.12    28761.880000
5149.74    29722.740000
5151.37    28991.220000
5152.99    28133.470000
5154.62    27581.120000
5156.24    27115.480000
5157.86    26836.550000
5159.49    26201.350000
5161.11    26947.280000
5162.74    26669.020000
5164.36    26559.290000
5165.98    26420.700000
5167.61    28058.660000
5169.23    28360.510000
5170.86    27579.120000
5172.48    27052.220000
5174.10    27500.590000
5175.73    25985.560000
5177.35    25873.920000
5178.98    26236.340000
5180.60    26340.200000
5182.23    26380.280000
5183.85    26642.170000
5185.47    26067.860000
5187.10    26360.560000
5188.72    27203.140000
5190.35    27314.060000
5191.97    27036.690000
5193.59    25788.480000
5195.22    25987.740000
5196.84    26058.570000
5198.47    24403.040000
5200.09    22245.440000
5201.71    21055.530000
5203.34    20146.160000
5204.96    20610.690000
5206.59    21804.030000
5208.21    21826.700000
5209.83    22857.390000
5211.46    24023.570000
5213.08    23520.740000
5214.71    23128.670000
5216.33    22652.860000
5217.95    22711.950000
5219.58    22612.540000
5221.20    23319.890000
5222.83    23945.370000
5224.45    25034.650000
5226.07    25959.980000
5227.70    25688.050000
5229.32    26188.820000
5230.95    26768.610000
5232.57    26801.460000
5234.19    27170.700000
5235.82    27610.880000
5237.44    28595.880000
5239.07    27352.850000
5240.69    25711.000000
5242.31    25748.030000
5243.94    25160.250000
5245.56    26193.120000
5247.19    26971.130000
5248.81    27135.930000
5250.44    28397.740000
5252.06    29216.500000
5253.68    28601.860000
5255.31    28113.680000
5256.93    28280.610000
5258.56    26561.800000
5260.18    26251.360000
5261.80    27499.930000
5263.43    27180.690000
5265.05    27546.030000
5266.68    27898.120000
5268.30    27247.080000
5269.92    28364.100000
5271.55    29388.290000
5273.17    29967.730000
5274.80    30694.600000
