#Wavelength     Flux    Sky Spectrum 
#[Angstrom]   [Counts]     [Counts]
4579.10    19.415569    22.375893
4580.31    21.506189    20.011007
4581.53    18.671320    22.115953
4582.74    14.901939    22.814848
4583.96    13.690172    26.123646
4585.17    25.351507    18.419939
4586.38    21.985670    20.025908
4587.60    17.623816    24.721279
4588.81    24.911715    19.738607
4590.03    26.827129    14.052968
4591.24    28.593784    17.691175
4592.46    19.432499    18.203030
4593.67    19.763916    12.741354
4594.89    29.875992    17.120499
4596.10    18.868784    33.717514
4597.32    21.472324    21.029568
4598.53    33.752312    13.266726
4599.74    35.234638    18.762653
4600.96    26.145334    17.224722
4602.17    24.795044    10.301316
4603.39    26.329727    13.423323
4604.60    23.547836    18.848499
4605.82    20.418530    15.259075
4607.03    19.742373    11.570616
4608.25    18.608881    20.598579
4609.46    25.821766    16.232870
4610.68    27.645512    14.512331
4611.89    21.161583    17.766964
4613.10    21.196882    19.587566
4614.32    31.709166    21.511723
4615.53    26.690891    10.742083
4616.75    27.241816    13.926298
4617.96    26.684153    18.378511
4619.18    24.208874    10.952754
4620.39    33.128464    11.694421
4621.61    19.242554    18.948107
4622.82    19.063705    18.384773
4624.04    27.737091    18.087763
4625.25    24.216021    19.355574
4626.46    17.999863    15.000154
4627.68    23.265165    19.758995
4628.89    20.881136    21.898937
4630.11    17.319931    19.532858
4631.32    27.927666    13.746174
4632.54    39.925938    11.436391
4633.75    28.338018    23.198950
4634.97    29.723953    18.222038
4636.18    27.181656    15.717443
4637.40    26.597225    19.513277
4638.61    39.197216    16.406742
4639.82    38.690804    12.314560
4641.04    28.835274    11.248631
4642.25    23.915314    20.235418
4643.47    35.484299    22.332815
4644.68    42.507984    15.177286
4645.90    24.054735    15.997683
4647.11    18.288895    15.074801
4648.33    22.949745    16.772354
4649.54    22.342503    21.945183
4650.76    22.603712    19.329578
4651.97    27.922474     9.589774
4653.18    25.144667    13.775754
4654.40    39.696335    22.758640
4655.61    33.382160    21.410536
4656.83    26.301630    11.895863
4658.04    35.523830    11.702534
4659.26    30.086067    23.879555
4660.47    33.028378    20.411720
4661.69    46.677582    12.126062
4662.90    32.940880    19.952469
4664.12    17.298800    27.714266
4665.33    30.515347    18.194763
4666.54    27.488331    15.805593
4667.76    41.249210    19.056555
4668.97    36.816971    25.126265
4670.19    25.996122    23.552912
4671.40    26.286690    20.949875
4672.62    22.010113    28.003754
4673.83    29.521355    20.711374
4675.05    33.218323    16.736433
4676.26    44.283646    13.332197
4677.47    47.188919    11.414950
4678.69    31.416214    14.060503
4679.90    27.271622    14.573695
4681.12    20.454327    24.263432
4682.33    14.493924    23.623428
4683.55    28.062096    18.005362
4684.76    41.308720    14.649338
4685.98    31.533707    11.022238
4687.19    35.797668    13.931318
4688.41    51.022930    11.247267
4689.62    33.346249    15.125799
4690.83    24.108297    24.673771
4692.05    38.341148    26.279640
4693.26    26.979158    19.986992
4694.48    28.007202    19.990578
4695.69    23.924919    25.338646
4696.91    38.986290    19.377808
4698.12    47.086796    14.802663
4699.34    28.359705    21.463747
4700.55    33.343140    17.410133
4701.77    41.463467    11.662168
4702.98    27.399355    17.693256
4704.19    29.556721    17.441050
4705.41    41.103558    15.553060
4706.62    30.113829    23.142099
4707.84    28.842777    17.535717
4709.05    29.244413    17.528957
4710.27    27.752274    22.382236
4711.48    21.077761    24.036755
4712.70    27.025341    20.885597
4713.91    45.008396    16.816395
4715.13    32.230282    15.763675
4716.34    48.138969    18.103399
4717.55    49.820606    14.950146
4718.77    32.667316    11.491854
4719.98    29.813101    16.968025
4721.20    36.051205    22.973301
4722.41    35.048176    15.861900
4723.63    37.171562    17.672104
4724.84    33.139751    21.185434
4726.06    36.093983    18.543810
4727.27    39.909508    15.818761
4728.49    23.038088    16.013477
4729.70    38.954975    14.783279
4730.91    45.556107    17.907516
4732.13    40.038330    17.975151
4733.34    39.823929    15.830902
4734.56    41.855789    18.606258
4735.77    36.427467    23.666132
4736.99    30.520536    28.416729
4738.20    37.091324    22.124577
4739.42    31.376127    19.431232
4740.63    23.786097    19.980757
4741.85    32.256634    17.391584
4743.06    26.447254    25.489939
4744.27    28.465242    25.522572
4745.49    42.846760    19.998228
4746.70    37.680820    17.473997
4747.92    21.844822    20.211876
4749.13    26.627384    22.985878
4750.35    34.550102    20.292831
4751.56    48.045624    19.266663
4752.78    40.127270    17.630253
4753.99    24.150888    17.755287
4755.21    21.062988    24.414063
4756.42    26.581755    27.551249
4757.63    35.758564    14.670606
4758.85    31.406969    21.118065
4760.06    38.332508    21.815294
4761.28    53.701683    17.812311
4762.49    49.069710    20.033775
4763.71    31.911331    17.968031
4764.92    43.715691    17.542191
4766.14    47.050308    12.168782
4767.35    37.755943    13.071465
4768.57    31.808008    16.453083
4769.78    38.581749    16.319283
4770.99    52.985779    18.002018
4772.21    52.550518    14.821310
4773.42    29.221672    20.437300
4774.64    35.238239    22.951307
4775.85    52.164204    22.944977
4777.07    46.563869    23.009659
4778.28    44.391785    15.070180
4779.50    27.681702    19.267168
4780.71    39.191017    17.804386
4781.92    28.860447    23.569403
4783.14    15.045393    27.513336
4784.35    31.271109    19.871807
4785.57    16.804987    26.589731
4786.78    17.810139    26.266144
4788.00    30.394058    15.741756
4789.21    43.547752    12.196089
4790.43    40.954514    15.469392
4791.64    25.325302    17.635365
4792.86    33.282955    24.843910
4794.07    46.783295    20.766775
4795.28    33.427864    23.100761
4796.50    35.124004    16.700172
4797.71    42.753628    10.945945
4798.93    20.527876    25.379911
4800.14    32.850960    20.582233
4801.36    38.118889    22.923677
4802.57    34.673435    21.550726
4803.79    23.576437    19.540512
4805.00    20.487112    23.663401
4806.22    37.122093    23.988823
4807.43    31.296690    22.659056
4808.64    38.338402    18.322433
4809.86    24.968819    21.027800
4811.07    27.495991    23.580904
4812.29    53.489597    19.510918
4813.50    37.130028    19.015610
4814.72    47.133759    18.442533
4815.93    27.445162    24.502542
4817.15    18.498356    37.936653
4818.36    25.179796    41.469376
4819.58    22.344267    26.747890
4820.79    42.883198    15.180737
4822.00    42.328972    21.363537
4823.22    26.843388    32.428310
4824.43    35.082638    27.990511
4825.65    45.413715    19.409811
4826.86    30.673903    21.898462
4828.08    39.119728    17.115776
4829.29    35.659245    23.065197
4830.51    27.571211    32.650745
4831.72    31.381432    26.532288
4832.94    35.252995    20.281567
4834.15    30.041735    31.003191
4835.36    41.067440    19.178516
4836.58    43.386269    17.954159
4837.79    37.585629    28.101454
4839.01    36.735615    31.932756
4840.22    40.365807    25.697729
4841.44    41.824097    19.152679
4842.65    46.447594    20.548567
4843.87    44.807064    25.940302
4845.08    39.381664    22.517414
4846.30    36.455151    22.383839
4847.51    39.733215    29.622782
4848.72    47.307251    17.487232
4849.94    36.634785    26.153517
4851.15    37.768715    29.308960
4852.37    37.799885    22.842911
4853.58    28.400869    25.601112
4854.80    32.006390    30.984989
4856.01    31.957193    20.530453
4857.23    50.165291    13.351095
4858.44    52.476566    17.524664
4859.66    42.761883    20.933403
4860.87    44.885544    16.334505
4862.08    43.485840    13.126131
4863.30    54.138077    13.635530
4864.51    41.494572    19.890007
4865.73    40.298542    20.879831
4866.94    43.875858    19.996838
4868.16    23.075771    26.079468
4869.37    47.487785    21.521179
4870.59    46.260117    14.933304
4871.80    27.848406    23.369204
4873.02    28.434155    29.565969
4874.23    39.700985    22.275066
4875.44    38.775856    22.873224
4876.66    48.151115    22.970673
4877.87    47.558029    18.170492
4879.09    42.530128    18.980865
4880.30    39.458923    25.280046
4881.52    31.693115    28.163200
4882.73    34.505863    29.879705
4883.95    62.063950    20.336346
4885.16    55.851704    21.359619
4886.37    42.964424    28.102156
4887.59    49.521931    29.918125
4888.80    30.246895    33.651642
4890.02    45.920021    16.127317
4891.23    44.110252    24.082703
4892.45    37.093456    29.991608
4893.66    42.070274    20.423674
4894.88    37.965508    28.226992
4896.09    42.362633    32.373985
4897.31    49.255116    27.225441
4898.52    43.893475    21.037161
4899.73    37.581917    25.079391
4900.95    34.601307    34.512310
4902.16    23.160782    30.962503
4903.38    48.898613    21.624962
4904.59    61.672218    16.555437
4905.81    53.892319    21.341883
4907.02    53.971912    27.216084
4908.24    56.227192    24.059168
4909.45    41.728867    24.279123
4910.67    46.246223    20.487209
4911.88    46.340500    17.119017
4913.09    41.327385    20.543629
4914.31    49.936256    25.044615
4915.52    35.471844    24.376003
4916.74    23.100866    30.992031
4917.95    35.253288    23.507910
4919.17    39.936535    19.453852
4920.38    28.290981    29.990778
4921.60    41.566978    19.751947
4922.81    30.908340    22.670721
4924.03    30.332121    25.317066
4925.24    36.255123    24.013077
4926.45    40.816483    24.989796
4927.67    59.715759    25.749146
4928.88    49.882515    31.858097
4930.10    50.247627    26.077406
4931.31    52.784634    19.607649
4932.53    56.687344    19.591417
4933.74    73.003029    17.000082
4934.96    55.839638    19.563259
4936.17    58.163395    18.978071
4937.39    51.264809    18.081175
4938.60    44.162601    21.170761
4939.81    58.630756    27.346901
4941.03    29.784485    33.328873
4942.24    33.887138    25.631590
4943.46    51.979218    21.781206
4944.67    53.027409    21.999207
4945.89    51.299362    19.235886
4947.10    57.125683    26.370972
4948.32    47.880974    24.342876
4949.53    36.359535    20.608778
4950.75    40.924343    26.058142
4951.96    55.212227    29.270281
4953.17    60.534515    17.593483
4954.39    64.102692    22.970600
4955.60    60.483116    25.611170
4956.82    54.290821    22.782934
4958.03    50.147797    23.933252
4959.25    43.354103    22.797968
4960.46    45.996563    26.124266
4961.68    59.877689    17.234543
4962.89    67.952721    19.116234
4964.11    58.860184    31.822937
4965.32    42.490906    21.867027
4966.53    31.892239    36.698837
4967.75    38.849594    31.748329
4968.96    55.744785    19.397396
4970.18    59.757393    25.877102
4971.39    45.677750    26.263643
4972.61    48.615742    22.816513
4973.82    51.752766    22.380136
4975.04    54.115761    30.515583
4976.25    57.694607    38.102833
4977.47    50.602932    30.909508
4978.68    47.993683    23.451988
4979.89    47.446030    20.957481
4981.11    44.612938    23.705048
4982.32    44.653942    28.568369
4983.54    53.076645    30.840836
4984.75    59.506077    30.917643
4985.97    61.774918    22.994015
4987.18    42.728172    27.217169
4988.40    24.955597    41.377731
4989.61    49.537746    31.483679
4990.82    41.518890    25.398970
4992.04    54.684242    24.409861
4993.25    63.643250    24.062204
4994.47    37.710686    26.435099
4995.68    44.349121    30.100597
4996.90    48.756260    25.459499
4998.11    54.986069    22.031288
4999.33    55.692188    27.827057
5000.54    51.724064    31.626860
5001.76    72.804649    18.941082
5002.97    67.167297    16.804892
5004.18    50.514465    24.181805
5005.40    55.046791    26.570576
5006.61    69.033813    26.143000
5007.83    58.384129    36.347363
5009.04    56.187637    30.102488
5010.26    50.750481    28.092665
5011.47    43.394344    33.881916
5012.69    50.027740    28.073696
5013.90    42.149872    30.643608
5015.12    52.568283    27.206036
5016.33    61.013485    21.356810
5017.54    56.273384    24.053305
5018.76    59.712368    29.881990
5019.97    43.228706    25.839161
5021.19    51.214039    18.942945
5022.40    53.656723    19.447660
5023.62    37.561245    25.454262
5024.83    62.211319    25.635880
5026.05    60.125092    21.009092
5027.26    51.546539    24.923096
5028.48    51.070797    28.167267
5029.69    44.861145    21.956928
5030.90    42.779343    25.503929
5032.12    44.664429    23.092943
5033.33    46.995564    21.779268
5034.55    49.828674    28.653664
5035.76    53.851593    32.216049
5036.98    52.707069    24.798622
5038.19    41.498962    29.054819
5039.41    36.481823    30.991352
5040.62    48.987850    18.781507
5041.84    64.545479    15.453030
5043.05    67.043114    21.996815
5044.26    62.100838    26.893688
5045.48    62.034756    28.768227
5046.69    65.992676    29.963556
5047.91    62.616600    24.874989
5049.12    69.307610    24.641329
5050.34    65.684273    23.493776
5051.55    48.879017    24.400711
5052.77    46.695759    34.709980
5053.98    51.014141    29.304214
5055.20    55.676754    28.625896
5056.41    52.359665    31.917202
5057.62    44.922787    27.802511
5058.84    52.722397    25.837772
5060.05    68.101044    20.037298
5061.27    73.588905    18.787672
5062.48    74.064247    20.748648
5063.70    79.226334    19.647816
5064.91    67.781120    29.015619
5066.13    63.519379    23.544294
5067.34    66.087860    17.713081
5068.56    59.089844    25.198185
5069.77    47.205139    23.310709
5070.98    48.401890    33.423054
5072.20    57.639004    36.615154
5073.41    58.877525    29.068394
5074.63    54.550072    27.359493
5075.84    68.640381    19.447151
5077.06    59.432953    25.307209
5078.27    55.140350    29.761423
5079.49    71.970978    21.908768
5080.70    56.329689    28.474752
5081.91    67.938683    30.717415
5083.13    75.332718    30.490738
5084.34    57.954250    32.035381
5085.56    54.118607    29.454163
5086.77    68.523941    25.385078
5087.99    64.994026    30.747097
5089.20    61.768616    32.210705
5090.42    71.831543    23.976450
5091.63    47.861015    30.590334
5092.85    41.126904    29.454576
5094.06    63.925690    22.756290
5095.27    79.942345    25.045031
5096.49    68.544830    32.887367
5097.70    77.376022    26.255922
5098.92    75.853081    20.297337
5100.13    69.526230    19.219154
5101.35    78.428719    17.733051
5102.56    52.759262    28.910498
5103.78    50.834232    31.883070
5104.99    72.848518    28.441389
5106.21    81.042763    27.837952
5107.42    75.568169    23.890961
5108.63    64.930817    28.607655
5109.85    63.034550    29.452820
5111.06    67.065742    25.071381
5112.28    62.782726    31.068441
5113.49    60.230461    33.351555
5114.71    66.725105    25.823616
5115.92    70.224342    23.302372
5117.14    64.003159    33.655777
5118.35    72.364052    31.912245
5119.57    82.056175    28.726500
5120.78    75.486214    26.958309
5121.99    64.023903    25.053438
5123.21    74.223091    30.691654
5124.42    64.732155    32.312466
5125.64    54.043030    32.856785
5126.85    65.484436    33.689499
5128.07    77.503914    26.022224
5129.28    81.313248    17.294863
5130.50    83.377197    15.080710
5131.71    81.732353    21.735128
5132.93    66.711868    31.335705
5134.14    49.571583    31.350842
5135.35    65.423462    29.877832
5136.57    83.967064    36.538597
5137.78    66.810257    45.846584
5139.00    68.654228    41.262539
5140.21    74.160149    38.626991
5141.43    80.247543    35.917507
5142.64    89.012451    29.001682
5143.86    77.356796    34.398582
5145.07    68.704964    30.154224
5146.29    62.949017    29.586145
5147.50    54.858910    40.140694
5148.71    60.652000    34.540344
5149.93    78.913544    33.611149
5151.14    75.107658    31.555487
5152.36    55.517170    26.083607
5153.57    68.739120    32.824661
5154.79    82.588928    32.948071
5156.00    87.728836    27.912012
5157.22    80.658958    25.955589
5158.43    63.251934    26.825607
5159.65    77.529442    27.414043
5160.86    87.601883    29.164953
5162.07    73.019165    29.628290
5163.29    62.789486    26.188837
5164.50    71.744995    27.458408
5165.72    72.104599    26.647772
5166.93    68.066162    22.234726
5168.15    81.728142    20.154942
5169.36    85.517776    19.659985
5170.58    85.370621    24.824804
5171.79    82.223953    32.437717
5173.01    74.934875    35.828354
5174.22    82.703148    36.073715
5175.43    81.580353    28.666273
5176.65    72.803055    28.142567
5177.86    72.187851    39.829212
5179.08    66.869041    31.657576
5180.29    69.089874    28.669384
5181.51    76.285774    29.774706
5182.72    72.678528    22.117849
5183.94    57.977005    27.261963
5185.15    57.774437    31.317362
5186.36    60.799328    35.202332
5187.58    54.774132    45.625927
5188.79    68.416924    47.255024
5190.01    64.284950    39.155067
5191.22    61.427608    31.799585
5192.44    83.447205    30.146585
5193.65    76.075989    27.387405
5194.87    48.351776    41.408180
5196.08    49.667374    53.432251
5197.30    81.473038    45.256699
5198.51    65.901932    46.234837
5199.72    54.833813    40.380974
5200.94    71.999779    30.252182
5202.15    86.068184    29.040310
5203.37    71.553787    27.980227
5204.58    58.681786    33.395939
5205.80    69.063339    36.171780
5207.01    86.731903    30.058765
5208.23    74.534317    34.942303
5209.44    54.687561    32.051704
5210.66    61.596794    25.916462
5211.87    87.342354    32.378658
5213.08    74.966354    36.516479
5214.30    73.164726    40.909805
5215.51    84.257278    42.410950
5216.73    75.563515    38.031002
5217.94    78.255440    41.710377
5219.16    74.331337    37.672024
5220.37    70.379593    32.627922
5221.59    86.326309    41.515724
5222.80    86.926521    36.872494
5224.02    74.270126    35.687286
5225.23    76.960564    41.129345
5226.44    100.726204    36.710350
5227.66    87.631302    36.130730
5228.87    68.376762    36.840637
5230.09    76.037560    34.722477
5231.30    93.329575    33.136879
5232.52    90.660202    33.054718
5233.73    83.763710    32.636730
5234.95    87.335030    33.229099
5236.16    89.394821    37.430489
5237.38    85.506668    37.443451
5238.59    76.037605    42.642437
5239.80    78.558144    50.993698
5241.02    107.493317    42.603111
5242.23    97.550323    39.898167
5243.45    76.625191    41.899757
5244.66    83.901672    39.987682
5245.88    79.498642    41.969490
5247.09    85.050842    35.172375
5248.31    87.692436    30.834087
5249.52    76.520309    37.164925
5250.74    95.494659    27.341709
5251.95    82.595490    30.717041
5253.16    54.649708    44.289490
5254.38    73.491280    42.279682
5255.59    86.612213    44.004665
5256.81    91.873352    40.389416
5258.02    93.411140    29.988321
5259.24    83.903152    30.418196
5260.45    80.774323    46.174927
5261.67    92.735466    47.152184
5262.88    103.958961    33.865685
5264.10    91.044212    42.843384
5265.31    79.513092    41.300240
5266.52    84.538948    31.926716
5267.74    90.232445    31.938486
5268.95    68.764420    35.098766
5270.17    58.463642    40.745464
5271.38    69.420425    44.164459
5272.60    82.712685    41.423893
5273.81    92.019447    38.710629
5275.03    97.124580    40.904774
5276.24    90.523071    44.136059
5277.46    76.268066    41.163658
5278.67    96.679985    34.693409
5279.88    118.530380    28.859861
5281.10    109.707077    31.718830
5282.31    90.087570    45.377514
5283.53    94.002388    41.941620
5284.74    95.843094    36.432091
5285.96    74.606285    44.794979
5287.17    68.902473    44.793274
5288.39    95.364807    36.779305
