#Wavelength     Flux
#[Angstrom]   [Counts]
3941.59    527.497700
3943.22    923.524900
3944.84    803.663800
3946.46    616.200600
3948.09    817.955400
3949.71    564.375400
3951.34    574.684300
3952.96    560.313200
3954.58    711.870500
3956.21    835.984500
3957.83    997.217000
3959.46    848.675700
3961.08    1091.077000
3962.70    757.311200
3964.33    1188.154000
3965.95    705.544800
3967.58    914.183200
3969.20    874.279700
3970.82    980.471000
3972.45    755.689600
3974.07    991.289700
3975.70    759.902900
3977.32    891.645800
3978.94    937.937700
3980.57    742.050700
3982.19    841.564300
3983.82    920.687300
3985.44    1010.696000
3987.06    1056.998000
3988.69    859.752400
3990.31    789.514200
3991.94    842.159300
3993.56    922.052700
3995.18    669.785900
3996.81    506.853200
3998.43    966.949400
4000.06    724.691200
4001.68    632.857700
4003.30    807.910600
4004.93    993.115800
4006.55    770.081600
4008.18    1015.505000
4009.80    947.256300
4011.43    751.639400
4013.05    753.554300
4014.67    781.108400
4016.30    825.359500
4017.92    779.416000
4019.55    801.953200
4021.17    970.822400
4022.79    671.189400
4024.42    957.100200
4026.04    916.929500
4027.66    908.756700
4029.29    1011.641000
4030.91    916.620100
4032.54    1143.952000
4034.16    1015.746000
4035.79    760.279800
4037.41    869.232500
4039.03    813.991600
4040.66    864.865900
4042.28    722.331200
4043.91    649.527600
4045.53    833.935200
4047.15    746.441700
4048.78    554.732500
4050.40    593.984600
4052.03    599.728100
4053.65    833.571300
4055.27    832.054000
4056.90    686.479100
4058.52    717.171300
4060.15    648.322200
4061.77    731.573500
4063.39    966.713600
4065.02    907.848900
4066.64    1133.782000
4068.27    1151.714000
4069.89    936.320200
4071.51    886.180500
4073.14    962.877900
4074.76    904.322300
4076.39    853.245900
4078.01    667.311300
4079.64    669.923800
4081.26    809.844800
4082.88    649.528900
4084.51    628.376900
4086.13    474.316300
4087.76    501.153700
4089.38    629.992900
4091.00    792.741500
4092.63    760.465200
4094.25    601.206100
4095.88    823.077600
4097.50    948.664200
4099.12    1030.477000
4100.75    1018.182000
4102.37    829.265000
4104.00    790.867200
4105.62    1129.118000
4107.24    1055.438000
4108.87    892.013100
4110.49    1100.868000
4112.12    1132.147000
4113.74    971.629900
4115.36    1067.609000
4116.99    1301.133000
4118.61    1320.733000
4120.24    1094.559000
4121.86    1077.042000
4123.48    987.910700
4125.11    1003.380000
4126.73    1091.714000
4128.36    1153.461000
4129.98    1218.035000
4131.60    1189.433000
4133.23    994.457900
4134.85    1104.661000
4136.48    1240.549000
4138.10    1210.399000
4139.72    1120.375000
4141.35    1136.596000
4142.97    1127.704000
4144.60    982.901200
4146.22    1046.742000
4147.85    1218.233000
4149.47    1241.736000
4151.09    944.688000
4152.72    833.022800
4154.34    1098.326000
4155.97    1122.021000
4157.59    1093.948000
4159.21    1074.277000
4160.84    1039.044000
4162.46    1036.333000
4164.09    1322.836000
4165.71    1163.587000
4167.33    1139.801000
4168.96    1043.711000
4170.58    1162.415000
4172.20    1102.148000
4173.83    1005.634000
4175.45    1034.668000
4177.08    1153.886000
4178.70    861.669200
4180.32    1062.529000
4181.95    1267.280000
4183.57    1130.197000
4185.20    1045.210000
4186.82    1187.021000
4188.45    1205.959000
4190.07    1102.881000
4191.69    1119.991000
4193.32    1087.813000
4194.94    1115.077000
4196.57    1095.405000
4198.19    973.096400
4199.81    997.978800
4201.44    1299.247000
4203.06    1209.371000
4204.69    998.910100
4206.31    1029.297000
4207.93    1182.773000
4209.56    983.710000
4211.18    1157.196000
4212.81    1296.841000
4214.43    1070.185000
4216.05    1045.628000
4217.68    1092.154000
4219.30    1105.038000
4220.93    865.397500
4222.55    1047.742000
4224.18    1102.347000
4225.80    893.621800
4227.42    925.806600
4229.05    1055.398000
4230.67    1057.521000
4232.30    1093.116000
4233.92    909.230700
4235.54    928.159700
4237.17    1000.414000
4238.79    1276.397000
4240.41    1142.619000
4242.04    1005.035000
4243.66    922.769700
4245.29    1051.823000
4246.91    978.359700
4248.53    982.661600
4250.16    941.520400
4251.78    979.147600
4253.41    845.345300
4255.03    1087.899000
4256.65    1248.125000
4258.28    1141.364000
4259.90    1168.505000
4261.53    1258.547000
4263.15    1152.253000
4264.78    1036.522000
4266.40    927.093300
4268.02    1066.241000
4269.65    1090.833000
4271.27    1198.620000
4272.90    1389.311000
4274.52    1188.388000
4276.14    1178.333000
4277.77    1081.436000
4279.39    1015.712000
4281.02    1101.796000
4282.64    1192.207000
4284.26    1247.325000
4285.89    1260.331000
4287.51    1066.037000
4289.14    1212.629000
4290.76    1058.028000
4292.38    1081.929000
4294.01    1061.292000
4295.63    1206.222000
4297.26    1050.376000
4298.88    1077.764000
4300.50    1125.296000
4302.13    1059.481000
4303.75    1266.158000
4305.38    1204.906000
4307.00    1080.192000
4308.62    1262.370000
4310.25    1150.164000
4311.87    1192.371000
4313.50    1304.364000
4315.12    1066.929000
4316.74    1229.425000
4318.37    1202.887000
4319.99    1356.606000
4321.62    1263.268000
4323.24    1056.751000
4324.86    1069.501000
4326.49    1152.540000
4328.11    1095.066000
4329.74    964.133100
4331.36    1169.951000
4332.98    1240.259000
4334.61    922.189400
4336.23    1074.265000
4337.86    1301.103000
4339.48    1165.128000
4341.10    1144.896000
4342.73    1215.914000
4344.35    1264.659000
4345.98    1137.201000
4347.60    1216.116000
4349.23    1048.225000
4350.85    990.387500
4352.47    1072.966000
4354.10    1029.584000
4355.72    1163.332000
4357.35    1149.166000
4358.97    1066.069000
4360.59    1090.499000
4362.22    1133.321000
4363.84    1097.343000
4365.47    1157.449000
4367.09    1273.084000
4368.71    1002.282000
4370.34    1279.747000
4371.96    1400.390000
4373.59    1052.819000
4375.21    1001.590000
4376.83    1118.616000
4378.46    1036.450000
4380.08    1115.253000
4381.71    1071.384000
4383.33    1055.427000
4384.95    1148.379000
4386.58    1132.964000
4388.20    1150.811000
4389.83    1026.337000
4391.45    1121.374000
4393.07    1207.556000
4394.70    1162.175000
4396.32    1115.101000
4397.95    1075.629000
4399.57    885.965600
4401.19    890.792500
4402.82    1133.870000
4404.44    1213.212000
4406.07    1108.915000
4407.69    1106.593000
4409.31    1189.800000
4410.94    1266.503000
4412.56    1161.512000
4414.19    941.422900
4415.81    1032.383000
4417.44    1108.051000
4419.06    1052.786000
4420.68    1113.463000
4422.31    1123.148000
4423.93    1137.289000
4425.56    1071.989000
4427.18    1037.958000
4428.80    881.803700
4430.43    976.964800
4432.05    948.093400
4433.68    831.919600
4435.30    855.869600
4436.92    967.796900
4438.55    871.560400
4440.17    977.514000
4441.80    1143.785000
4443.42    1184.154000
4445.04    1119.344000
4446.67    1161.240000
4448.29    1361.907000
4449.92    1242.932000
4451.54    1084.880000
4453.16    1047.645000
4454.79    1195.994000
4456.41    1236.211000
4458.04    1213.576000
4459.66    1194.508000
4461.28    1166.086000
4462.91    1185.113000
4464.53    1038.583000
4466.16    1130.132000
4467.78    1179.426000
4469.40    1261.514000
4471.03    1384.084000
4472.65    1150.396000
4474.28    1025.699000
4475.90    1235.368000
4477.52    1049.717000
4479.15    1120.816000
4480.77    1114.006000
4482.40    1062.727000
4484.02    1128.084000
4485.65    1186.699000
4487.27    1176.051000
4488.89    1178.568000
4490.52    1203.786000
4492.14    1408.866000
4493.77    1271.658000
4495.39    1330.422000
4497.01    1346.769000
4498.64    1250.199000
4500.26    1211.371000
4501.89    1091.613000
4503.51    1216.899000
4505.13    1329.488000
4506.76    1199.107000
4508.38    1172.154000
4510.01    1139.915000
4511.63    1103.435000
4513.25    1100.611000
4514.88    992.250800
4516.50    1162.457000
4518.13    1099.833000
4519.75    1097.810000
4521.38    1083.700000
4523.00    1188.064000
4524.62    1201.383000
4526.25    1420.124000
4527.87    1428.985000
4529.49    1273.420000
4531.12    1268.040000
4532.74    1234.569000
4534.37    1338.582000
4535.99    1289.286000
4537.61    1081.299000
4539.24    1263.218000
4540.86    1322.393000
4542.49    1280.621000
4544.11    1343.966000
4545.73    1300.406000
4547.36    1153.972000
4548.98    1458.078000
4550.61    1166.344000
4552.23    1338.552000
4553.85    1408.612000
4555.48    1233.883000
4557.10    1206.108000
4558.73    1409.996000
4560.35    1296.977000
4561.98    1252.785000
4563.60    1167.278000
4565.22    1207.485000
4566.85    1182.499000
4568.47    1216.942000
4570.10    1269.487000
4571.72    1374.482000
4573.34    1419.435000
4574.97    1347.361000
4576.59    1313.405000
4578.22    1385.143000
4579.84    1321.308000
4581.46    1345.863000
4583.09    1189.271000
4584.71    1426.731000
4586.34    1279.617000
4587.96    1251.692000
4589.58    1111.686000
4591.21    1107.993000
4592.83    1199.509000
4594.46    1122.006000
4596.08    1200.046000
4597.70    1181.609000
4599.33    1313.931000
4600.95    1179.676000
4602.58    1252.139000
4604.20    1294.393000
4605.82    1323.944000
4607.45    1325.672000
4609.07    1486.799000
4610.70    1292.218000
4612.32    1386.791000
4613.94    1308.088000
4615.57    1255.498000
4617.19    1310.575000
4618.82    1377.415000
4620.44    1328.285000
4622.06    1268.351000
4623.69    1332.363000
4625.31    1457.425000
4626.94    1253.234000
4628.56    1482.309000
4630.19    1484.439000
4631.81    1379.636000
4633.43    1399.876000
4635.06    1286.631000
4636.68    1499.343000
4638.31    1406.002000
4639.93    1435.231000
4641.55    1507.400000
4643.18    1424.794000
4644.80    1499.520000
4646.43    1460.101000
4648.05    1330.146000
4649.67    1327.236000
4651.30    1357.955000
4652.92    1491.120000
4654.55    1585.110000
4656.17    1339.433000
4657.79    1371.084000
4659.42    1391.135000
4661.04    1167.421000
4662.67    1238.048000
4664.29    1250.658000
4665.91    1218.858000
4667.54    1145.565000
4669.16    1346.375000
4670.79    1378.262000
4672.41    1319.396000
4674.03    1367.782000
4675.66    1488.972000
4677.28    1446.684000
4678.91    1475.176000
4680.53    1440.133000
4682.15    1480.048000
4683.78    1296.562000
4685.40    1325.068000
4687.03    1333.296000
4688.65    1362.266000
4690.27    1408.373000
4691.90    1318.572000
4693.52    1334.064000
4695.15    1471.962000
4696.77    1502.400000
4698.40    1278.564000
4700.02    1290.641000
4701.64    1308.406000
4703.27    1391.671000
4704.89    1305.698000
4706.52    1322.592000
4708.14    1367.344000
4709.76    1290.598000
4711.39    1336.297000
4713.01    1368.854000
4714.64    1434.902000
4716.26    1382.125000
4717.88    1328.692000
4719.51    1242.502000
4721.13    1263.569000
4722.76    1318.152000
4724.38    1371.006000
4726.00    1392.809000
4727.63    1307.963000
4729.25    1438.754000
4730.88    1449.810000
4732.50    1371.520000
4734.12    1289.095000
4735.75    1308.448000
4737.37    1416.492000
4739.00    1343.094000
4740.62    1396.377000
4742.24    1499.672000
4743.87    1390.721000
4745.49    1378.882000
4747.12    1577.762000
4748.74    1596.140000
4750.36    1473.165000
4751.99    1365.430000
4753.61    1471.094000
4755.24    1433.246000
4756.86    1411.750000
4758.48    1443.837000
4760.11    1456.275000
4761.73    1427.030000
4763.36    1398.405000
4764.98    1398.675000
4766.60    1265.293000
4768.23    1326.454000
4769.85    1375.831000
4771.48    1369.330000
4773.10    1396.822000
4774.73    1412.433000
4776.35    1349.917000
4777.97    1387.314000
4779.60    1432.639000
4781.22    1299.960000
4782.85    1458.702000
4784.47    1558.479000
4786.09    1329.108000
4787.72    1278.707000
4789.34    1278.809000
4790.97    1361.489000
4792.59    1391.685000
4794.21    1347.221000
4795.84    1478.883000
4797.46    1496.426000
4799.09    1421.368000
4800.71    1416.113000
4802.33    1278.228000
4803.96    1364.000000
4805.58    1363.822000
4807.21    1268.863000
4808.83    1287.347000
4810.45    1380.731000
4812.08    1332.620000
4813.70    1301.918000
4815.33    1502.003000
4816.95    1435.121000
4818.57    1360.484000
4820.20    1499.484000
4821.82    1345.685000
4823.45    1352.243000
4825.07    1391.501000
4826.69    1327.985000
4828.32    1358.171000
4829.94    1334.065000
4831.57    1371.898000
4833.19    1376.269000
4834.81    1384.758000
4836.44    1424.870000
4838.06    1403.243000
4839.69    1447.794000
4841.31    1239.339000
4842.94    1386.224000
4844.56    1372.896000
4846.18    1287.143000
4847.81    1331.065000
4849.43    1402.443000
4851.06    1408.528000
4852.68    1353.885000
4854.30    1467.149000
4855.93    1455.495000
4857.55    1394.099000
4859.18    1268.309000
4860.80    1447.018000
4862.42    1417.999000
4864.05    1417.341000
4865.67    1504.760000
4867.30    1441.994000
4868.92    1477.231000
4870.54    1369.379000
4872.17    1280.903000
4873.79    1358.656000
4875.42    1348.596000
4877.04    1304.723000
4878.66    1475.097000
4880.29    1268.891000
4881.91    1396.224000
4883.54    1403.782000
4885.16    1425.251000
4886.78    1395.259000
4888.41    1380.284000
4890.03    1453.724000
4891.66    1451.523000
4893.28    1548.595000
4894.90    1322.983000
4896.53    1367.351000
4898.15    1267.958000
4899.78    1262.925000
4901.40    1536.356000
4903.02    1403.764000
4904.65    1271.511000
4906.27    1218.045000
4907.90    1400.907000
4909.52    1447.926000
4911.15    1463.096000
4912.77    1368.942000
4914.39    1300.217000
4916.02    1491.377000
4917.64    1476.788000
4919.27    1428.862000
4920.89    1438.386000
4922.51    1383.897000
4924.14    1379.141000
4925.76    1360.242000
4927.39    1370.595000
4929.01    1367.735000
4930.63    1352.923000
4932.26    1375.935000
4933.88    1418.984000
4935.51    1350.339000
4937.13    1409.320000
4938.75    1386.778000
4940.38    1554.897000
4942.00    1435.357000
4943.62    1416.282000
4945.25    1375.916000
4946.87    1563.485000
4948.50    1363.847000
4950.12    1239.077000
4951.75    1208.104000
4953.37    1336.578000
4954.99    1387.861000
4956.62    1384.252000
4958.24    1519.115000
4959.87    1490.663000
4961.49    1333.844000
4963.11    1306.301000
4964.74    1435.853000
4966.36    1427.188000
4967.99    1368.755000
4969.61    1312.917000
4971.23    1352.325000
4972.86    1419.544000
4974.48    1323.126000
4976.11    1403.933000
4977.73    1382.870000
4979.35    1330.237000
4980.98    1409.622000
4982.60    1396.248000
4984.23    1244.002000
4985.85    1302.156000
4987.48    1348.227000
4989.10    1225.843000
4990.72    1247.526000
4992.35    1307.443000
4993.97    1239.819000
4995.60    1359.609000
4997.22    1313.706000
4998.84    1321.730000
5000.47    1232.547000
5002.09    1175.550000
5003.72    1577.896000
5005.34    1825.520000
5006.96    1639.425000
5008.59    1386.432000
5010.21    1189.092000
5011.84    1221.359000
5013.46    1342.891000
5015.08    1240.402000
5016.71    1161.083000
5018.33    1211.742000
5019.96    1341.452000
5021.58    1310.480000
5023.20    1378.280000
5024.83    1182.034000
5026.45    1225.627000
5028.08    1331.861000
5029.70    1326.159000
5031.32    1354.002000
5032.95    1311.736000
5034.57    1335.345000
5036.20    1301.190000
5037.82    1239.844000
5039.44    1408.734000
5041.07    1200.772000
5042.69    1422.982000
5044.32    1372.502000
5045.94    1422.701000
5047.56    1438.160000
5049.19    1343.470000
5050.81    1570.259000
5052.44    1333.450000
5054.06    1414.541000
5055.69    1266.207000
5057.31    1240.851000
5058.93    1169.124000
5060.56    1253.489000
5062.18    1341.901000
5063.81    1389.064000
5065.43    1295.267000
5067.05    1200.239000
5068.68    1167.124000
5070.30    1371.307000
5071.93    1203.188000
5073.55    1267.370000
5075.17    1310.002000
5076.80    1352.965000
5078.42    1483.699000
5080.05    1437.432000
5081.67    1423.031000
5083.29    1248.681000
5084.92    1247.853000
5086.54    1181.252000
5088.17    1300.721000
5089.79    1385.779000
5091.41    1326.671000
5093.04    1434.265000
5094.66    1431.392000
5096.29    1455.139000
5097.91    1440.484000
5099.53    1437.768000
5101.16    1376.788000
5102.78    1403.140000
5104.41    1470.979000
5106.03    1490.489000
5107.65    1293.106000
5109.28    1352.209000
5110.90    1407.341000
5112.53    1375.632000
5114.15    1258.092000
5115.77    1378.233000
5117.40    1294.533000
5119.02    1301.400000
5120.65    1457.195000
5122.27    1421.766000
5123.90    1307.008000
5125.52    1320.333000
5127.14    1362.633000
5128.77    1282.340000
5130.39    1266.469000
5132.02    1207.953000
5133.64    1233.126000
5135.26    1221.012000
5136.89    1260.020000
5138.51    1324.036000
5140.14    1302.162000
5141.76    1467.599000
5143.38    1399.187000
5145.01    1248.031000
5146.63    1341.211000
5148.26    1374.373000
5149.88    1263.243000
5151.50    1354.893000
5153.13    1411.215000
5154.75    1426.357000
5156.38    1355.720000
5158.00    1364.410000
5159.62    1318.865000
5161.25    1372.478000
5162.87    1149.101000
5164.50    1095.314000
5166.12    1235.083000
5167.74    1241.464000
5169.37    1429.287000
5170.99    1200.505000
5172.62    1167.750000
5174.24    1308.097000
5175.86    1365.237000
5177.49    1316.326000
5179.11    1453.286000
5180.74    1413.775000
5182.36    1332.979000
5183.98    1350.787000
5185.61    1211.053000
5187.23    1254.345000
5188.86    1249.520000
5190.48    1294.190000
5192.10    1237.772000
5193.73    1302.825000
5195.35    1329.414000
5196.98    1423.909000
5198.60    1318.757000
5200.23    1264.347000
5201.85    1281.569000
5203.47    1420.802000
5205.10    1332.095000
5206.72    1360.387000
5208.35    1254.489000
5209.97    1311.310000
5211.59    1352.518000
5213.22    1318.381000
5214.84    1347.030000
5216.47    1310.330000
5218.09    1421.209000
5219.71    1427.243000
5221.34    1352.195000
5222.96    1360.926000
5224.59    1162.592000
5226.21    1317.312000
5227.83    1132.120000
5229.46    1190.292000
5231.08    1288.673000
5232.71    1285.957000
5234.33    1272.082000
5235.95    1146.305000
5237.58    1255.624000
5239.20    1403.399000
5240.83    1380.562000
5242.45    1326.830000
5244.07    1387.493000
5245.70    1386.025000
5247.32    1405.389000
5248.95    1377.798000
5250.57    1447.459000
5252.19    1257.079000
5253.82    1331.549000
5255.44    1083.605000
5257.07    1307.948000
5258.69    1258.866000
5260.31    1337.440000
5261.94    1226.144000
5263.56    1244.288000
5265.19    1310.115000
5266.81    1418.862000
5268.43    1472.885000
5270.06    1451.908000
5271.68    1356.771000
5273.31    1274.210000
5274.93    1280.640000
5276.56    1227.459000
5278.18    1239.762000
5279.80    1033.412000
5281.43    1291.608000
5283.05    1193.184000
5284.68    1379.924000
5286.30    1274.891000
5287.92    1102.024000
5289.55    1296.372000
5291.17    1292.031000
5292.80    1211.594000
5294.42    1302.284000
5296.04    1336.278000
5297.67    1168.437000
5299.29    1220.523000
5300.91    1380.541000
5302.54    1215.409000
5304.16    1169.136000
5305.79    1191.541000
5307.41    1318.568000
5309.03    1209.987000
5310.66    1361.716000
5312.28    1360.716000
5313.91    1299.301000
5315.53    1288.198000
5317.16    1183.772000
5318.78    1063.094000
5320.40    958.932600
5322.03    1087.720000
5323.65    955.171000
5325.28    1052.592000
5326.90    1099.768000
5328.52    1092.999000
5330.15    1117.773000
5331.77    1148.406000
5333.40    1130.359000
5335.02    1133.962000
5336.64    1101.720000
5338.27    1096.315000
5339.89    1066.788000
5341.52    1154.646000
5343.14    1166.600000
5344.76    1266.770000
5346.39    1248.355000
5348.01    1189.326000
5349.64    1306.556000
5351.26    1335.949000
5352.89    1294.377000
5354.51    1373.114000
5356.13    1263.090000
5357.76    1260.976000
