#Wavelength     Flux
#[Angstrom]   [Counts]
3932.25    17516.670000
3933.89    17755.590000
3935.52    19165.360000
3937.16    19255.120000
3938.79    18864.900000
3940.42    19167.010000
3942.06    18549.790000
3943.69    17347.890000
3945.32    16554.600000
3946.96    15676.240000
3948.59    13917.920000
3950.23    13016.930000
3951.86    11717.600000
3953.49    9824.991000
3955.13    7993.667000
3956.76    6621.940000
3958.39    6600.094000
3960.03    7936.575000
3961.66    9404.726000
3963.30    9912.587000
3964.93    12009.060000
3966.56    12988.590000
3968.20    13471.270000
3969.83    15498.450000
3971.47    16626.500000
3973.10    17713.700000
3974.73    19201.850000
3976.37    19032.090000
3978.00    19477.980000
3979.64    19101.460000
3981.27    18627.750000
3982.90    17260.160000
3984.54    15639.200000
3986.17    14380.080000
3987.80    12490.510000
3989.44    10189.460000
3991.07    8890.378000
3992.71    7945.251000
3994.34    8267.652000
3995.97    10634.190000
3997.61    12132.450000
3999.24    13819.090000
4000.88    16933.770000
4002.51    19293.120000
4004.14    21269.500000
4005.78    22058.510000
4007.41    23054.540000
4009.04    23832.220000
4010.68    23921.480000
4012.31    24536.360000
4013.95    24769.290000
4015.58    25883.740000
4017.21    26158.760000
4018.85    25729.650000
4020.48    25884.720000
4022.11    25606.200000
4023.75    25676.790000
4025.38    26260.760000
4027.02    26410.110000
4028.65    26615.920000
4030.28    27148.970000
4031.92    27506.590000
4033.55    27129.650000
4035.19    27084.340000
4036.82    27704.390000
4038.45    28066.280000
4040.09    28557.260000
4041.72    29068.410000
4043.36    28476.610000
4044.99    28751.790000
4046.62    28772.210000
4048.26    28452.880000
4049.89    28787.170000
4051.52    28602.090000
4053.16    27685.520000
4054.79    26529.340000
4056.43    26359.460000
4058.06    25777.920000
4059.69    25964.470000
4061.33    26832.810000
4062.96    27779.000000
4064.59    27953.900000
4066.23    27312.710000
4067.86    27418.920000
4069.50    26629.060000
4071.13    25570.420000
4072.76    25832.410000
4074.40    25560.080000
4076.03    27154.440000
4077.67    27805.360000
4079.30    26668.020000
4080.93    25997.270000
4082.57    25849.540000
4084.20    25521.900000
4085.84    25508.170000
4087.47    25560.830000
4089.10    25355.870000
4090.74    25547.960000
4092.37    26004.290000
4094.01    26358.810000
4095.64    26363.560000
4097.27    26504.820000
4098.91    26307.940000
4100.54    26284.340000
4102.17    26860.410000
4103.81    27301.570000
4105.44    27859.970000
4107.07    28656.080000
4108.71    29117.810000
4110.34    29702.210000
4111.98    29795.360000
4113.61    30131.010000
4115.24    29884.950000
4116.88    30253.930000
4118.51    30182.730000
4120.15    29372.380000
4121.78    28010.830000
4123.41    26502.710000
4125.05    25907.510000
4126.68    25563.260000
4128.31    25171.760000
4129.95    25651.120000
4131.58    26632.060000
4133.22    26854.750000
4134.85    27190.580000
4136.48    27879.010000
4138.12    27644.990000
4139.75    27586.480000
4141.39    27782.650000
4143.02    27811.800000
4144.65    28179.000000
4146.29    28348.280000
4147.92    27707.440000
4149.56    27457.840000
4151.19    28120.680000
4152.82    27796.500000
4154.46    27370.560000
4156.09    26746.380000
4157.73    26478.850000
4159.36    26495.920000
4160.99    26195.470000
4162.63    26602.640000
4164.26    26997.800000
4165.89    27025.510000
4167.53    26646.440000
4169.16    25727.830000
4170.80    25936.650000
4172.43    25760.020000
4174.06    25319.040000
4175.70    24666.760000
4177.33    24893.350000
4178.97    25514.290000
4180.60    26007.910000
4182.23    25922.130000
4183.87    26176.780000
4185.50    27355.420000
4187.13    27360.610000
4188.77    26814.410000
4190.40    26715.950000
4192.04    26977.500000
4193.67    26635.210000
4195.30    26179.600000
4196.94    26256.900000
4198.57    26262.890000
4200.20    26219.640000
4201.84    25638.220000
4203.47    25304.650000
4205.11    26063.290000
4206.74    26186.870000
4208.37    26535.370000
4210.01    26659.230000
4211.64    26701.450000
4213.27    27322.680000
4214.91    27635.330000
4216.54    27135.870000
4218.18    27195.060000
4219.81    27594.460000
4221.44    26612.120000
4223.08    25819.100000
4224.71    26045.000000
4226.35    26257.070000
4227.98    26877.620000
4229.61    27350.020000
4231.25    27935.620000
4232.88    28568.510000
4234.52    28716.520000
4236.15    29505.780000
4237.78    29479.910000
4239.42    28790.770000
4241.05    28667.620000
4242.69    28890.920000
4244.32    29326.180000
4245.95    29259.720000
4247.59    28436.840000
4249.22    27631.640000
4250.85    26978.570000
4252.49    25764.090000
4254.12    25329.840000
4255.76    25994.300000
4257.39    26968.640000
4259.02    28253.910000
4260.66    28973.630000
4262.29    29517.180000
4263.93    29827.230000
4265.56    30774.610000
4267.19    31392.660000
4268.83    31324.780000
4270.46    31799.400000
4272.09    32295.870000
4273.73    32183.570000
4275.36    31352.900000
4277.00    30822.610000
4278.63    29813.600000
4280.26    28839.420000
4281.90    29096.200000
4283.53    29360.890000
4285.16    30146.200000
4286.80    31269.400000
4288.43    31546.220000
4290.07    32241.170000
4291.70    32305.810000
4293.33    31376.630000
4294.97    30656.750000
4296.60    29602.360000
4298.24    28245.820000
4299.87    27334.260000
4301.50    27259.000000
4303.14    28904.200000
4304.77    29496.360000
4306.40    29985.180000
4308.04    30480.950000
4309.67    29919.950000
4311.31    29933.190000
4312.94    29278.100000
4314.57    28629.530000
4316.21    28544.790000
4317.84    28320.380000
4319.48    28056.920000
4321.11    27920.280000
4322.74    27028.210000
4324.38    26479.350000
4326.01    24495.780000
4327.65    22995.800000
4329.28    21227.140000
4330.91    20855.100000
4332.55    22256.850000
4334.18    21852.580000
4335.81    23245.550000
4337.45    24428.400000
4339.08    26070.120000
4340.72    28820.460000
4342.35    31441.120000
4343.98    33675.610000
4345.62    35036.350000
4347.25    34691.910000
4348.89    34334.510000
4350.52    33136.310000
4352.15    32300.380000
4353.79    32082.770000
4355.42    33877.530000
4357.05    35064.980000
4358.69    36245.270000
4360.32    37337.700000
4361.96    36874.100000
4363.59    35868.820000
4365.22    35452.660000
4366.86    34595.650000
4368.49    33671.780000
4370.12    33582.270000
4371.76    34451.010000
4373.39    35524.510000
4375.03    36426.270000
4376.66    36661.160000
4378.29    35917.100000
4379.93    35819.000000
4381.56    35978.860000
4383.20    36017.540000
4384.83    35615.920000
4386.46    36583.350000
4388.10    36980.700000
4389.73    37562.650000
4391.36    38706.910000
4393.00    38888.240000
4394.63    38429.020000
4396.27    37653.140000
4397.90    36496.440000
4399.53    36709.290000
4401.17    35646.880000
4402.80    34740.760000
4404.44    35174.490000
4406.07    34112.120000
4407.70    33317.410000
4409.34    31919.290000
4410.97    30747.560000
4412.60    30817.380000
4414.24    30928.580000
4415.87    31391.770000
4417.51    32758.900000
4419.14    34082.930000
4420.77    34738.100000
4422.41    35731.960000
4424.04    35762.350000
4425.68    36082.340000
4427.31    35779.730000
4428.94    35529.180000
4430.58    34853.850000
4432.21    33511.210000
4433.85    34385.960000
4435.48    35203.790000
4437.11    35708.920000
4438.75    36414.830000
4440.38    36991.890000
4442.02    37227.000000
4443.65    38489.590000
4445.28    38589.790000
4446.92    38805.290000
4448.55    38388.250000
4450.18    38626.190000
4451.82    38636.000000
4453.45    38966.860000
4455.09    38509.680000
4456.72    38510.660000
4458.35    38429.130000
4459.99    38493.790000
4461.62    38341.290000
4463.25    38171.010000
4464.89    38958.520000
4466.52    38967.500000
4468.16    39135.690000
4469.79    39853.880000
4471.42    40152.380000
4473.06    40405.540000
4474.69    40865.480000
4476.32    41541.540000
4477.96    40595.060000
4479.59    39661.730000
4481.23    38178.400000
4482.86    37863.770000
4484.49    36698.810000
4486.13    35497.750000
4487.76    35729.060000
4489.40    35800.600000
4491.03    36522.860000
4492.66    37698.150000
4494.30    38529.920000
4495.93    39067.160000
4497.56    40254.580000
4499.20    40246.570000
4500.83    41364.450000
4502.47    42370.660000
4504.10    42846.570000
4505.73    43575.210000
4507.37    43062.450000
4509.00    42739.190000
4510.64    42369.050000
4512.27    42956.860000
4513.90    42903.210000
4515.54    42455.770000
4517.17    42161.300000
4518.81    41673.350000
4520.44    41550.340000
4522.07    40897.060000
4523.71    41529.240000
4525.34    42130.710000
4526.98    42404.660000
4528.61    43104.880000
4530.24    44510.680000
4531.88    44433.410000
4533.51    45970.000000
4535.14    47045.320000
4536.78    46655.310000
4538.41    45249.500000
4540.05    46478.950000
4541.68    45644.630000
4543.31    44719.780000
4544.95    43779.210000
4546.58    44153.870000
4548.22    43905.750000
4549.85    43946.820000
4551.48    43811.870000
4553.12    42228.460000
4554.75    40489.230000
4556.38    39285.860000
4558.02    38427.140000
4559.65    38608.310000
4561.29    39097.530000
4562.92    39150.890000
4564.55    40261.220000
4566.19    41230.660000
4567.82    42123.990000
4569.45    42454.870000
4571.09    43096.110000
4572.72    43742.480000
4574.36    43539.490000
4575.99    42194.080000
4577.62    42324.630000
4579.26    42389.770000
4580.89    42891.870000
4582.52    43052.520000
4584.16    44544.320000
4585.79    44307.570000
4587.43    46122.970000
4589.06    46517.820000
4590.69    46327.990000
4592.33    46701.230000
4593.96    46741.740000
4595.60    46129.950000
4597.23    46269.040000
4598.86    46636.130000
4600.50    46641.460000
4602.13    46414.680000
4603.77    45871.490000
4605.40    45567.280000
4607.03    44661.430000
4608.67    44674.420000
4610.30    44941.610000
4611.94    43756.190000
4613.57    44508.070000
4615.20    45118.880000
4616.84    45014.360000
4618.47    45418.250000
4620.10    46369.900000
4621.74    45345.440000
4623.37    44747.550000
4625.01    44476.620000
4626.64    43932.330000
4628.27    44890.170000
4629.91    43471.340000
4631.54    44680.690000
4633.18    46100.010000
4634.81    46268.380000
4636.44    47984.520000
4638.08    47751.170000
4639.71    48587.770000
4641.34    49601.380000
4642.98    49044.180000
4644.61    48971.780000
4646.25    48916.500000
4647.88    49199.020000
4649.51    50183.540000
4651.15    49184.740000
4652.78    49741.500000
4654.41    49238.280000
4656.05    49042.250000
4657.68    49251.230000
4659.32    49040.010000
4660.95    47613.990000
4662.58    47688.370000
4664.22    46957.660000
4665.85    46962.000000
4667.49    46804.120000
4669.12    45100.720000
4670.75    45303.040000
4672.39    44901.030000
4674.02    43670.620000
4675.65    44350.790000
4677.29    44180.120000
4678.92    44865.280000
4680.56    44484.360000
4682.19    45719.510000
4683.82    45382.280000
4685.46    46325.680000
4687.09    47502.850000
4688.73    46646.960000
4690.36    46953.760000
4691.99    46537.500000
4693.63    45570.160000
4695.26    44131.630000
4696.90    42923.460000
4698.53    42837.960000
4700.16    43219.390000
4701.80    43701.600000
4703.43    44663.930000
4705.06    44423.980000
4706.70    45481.450000
4708.33    44898.180000
4709.97    45353.300000
4711.60    44808.370000
4713.23    44376.630000
4714.87    44843.160000
4716.50    44587.530000
4718.14    45684.250000
4719.77    45895.100000
4721.40    46578.510000
4723.04    45982.730000
4724.67    45653.780000
4726.30    44409.910000
4727.94    44138.610000
4729.57    44175.980000
4731.21    44199.260000
4732.84    43970.190000
4734.47    44032.140000
4736.11    43938.390000
4737.74    44113.590000
4739.38    44274.500000
4741.01    44417.750000
4742.64    44865.730000
4744.28    45912.880000
4745.91    46652.930000
4747.54    48165.900000
4749.18    48440.750000
4750.81    48604.880000
4752.45    48779.280000
4754.08    47695.310000
4755.71    47521.730000
4757.35    47147.940000
4758.98    46317.550000
4760.61    45717.910000
4762.25    45877.640000
4763.88    47066.750000
4765.52    46975.120000
4767.15    46210.380000
4768.78    46904.280000
4770.42    48313.230000
4772.05    49557.410000
4773.69    49543.220000
4775.32    50108.930000
4776.95    49482.680000
4778.59    49539.610000
4780.22    49377.700000
4781.85    50063.180000
4783.49    49491.290000
4785.12    48437.500000
4786.76    47924.970000
4788.39    47491.180000
4790.02    47091.760000
4791.66    47503.750000
4793.29    46734.650000
4794.93    45803.350000
4796.56    45665.370000
4798.19    46119.340000
4799.83    46611.590000
4801.46    46812.090000
4803.10    47385.960000
4804.73    47734.020000
4806.36    48178.440000
4808.00    48212.880000
4809.63    47716.790000
4811.26    47465.110000
4812.90    46328.960000
4814.53    46404.140000
4816.17    47376.840000
4817.80    47231.850000
4819.43    46941.460000
4821.07    47306.300000
4822.70    49172.080000
4824.34    48829.160000
4825.97    48223.710000
4827.60    48734.680000
4829.24    48756.380000
4830.87    48946.290000
4832.50    48839.710000
4834.14    48527.770000
4835.77    48665.620000
4837.41    48034.550000
4839.04    47513.340000
4840.67    47456.640000
4842.31    47334.870000
4843.94    47811.520000
4845.57    48154.110000
4847.21    48494.680000
4848.84    48965.340000
4850.48    48963.490000
4852.11    48029.680000
4853.74    47809.330000
4855.38    48169.300000
4857.01    48249.030000
4858.65    47051.140000
4860.28    46790.980000
4861.91    46699.770000
4863.55    46528.740000
4865.18    46659.730000
4866.81    46175.880000
4868.45    45397.680000
4870.08    45516.580000
4871.72    45547.000000
4873.35    45757.180000
4874.98    46550.340000
4876.62    46746.850000
4878.25    46533.470000
4879.89    45708.310000
4881.52    45667.620000
4883.15    44562.400000
4884.79    43884.630000
4886.42    43619.260000
4888.06    42308.830000
4889.69    41580.350000
4891.32    40615.930000
4892.96    40846.490000
4894.59    40960.510000
4896.23    40927.290000
4897.86    40874.440000
4899.49    42056.000000
4901.13    42264.510000
4902.76    41876.790000
4904.39    41882.810000
4906.03    42914.370000
4907.66    43520.300000
4909.30    43931.810000
4910.93    44738.200000
4912.56    45245.740000
4914.20    44538.790000
4915.83    43615.660000
4917.46    43127.170000
4919.10    43493.360000
4920.73    43397.340000
4922.37    44067.330000
4924.00    45311.720000
4925.63    46204.860000
4927.27    47340.170000
4928.90    47515.590000
4930.53    47806.560000
4932.17    47147.210000
4933.80    46874.390000
4935.44    47240.360000
4937.07    47164.160000
4938.70    46462.170000
4940.34    46917.800000
4941.97    46674.240000
4943.61    47225.200000
4945.24    45842.800000
4946.87    44688.710000
4948.51    44157.540000
4950.14    43661.880000
4951.77    43296.130000
4953.41    43436.180000
4955.04    44142.400000
4956.68    44364.730000
4958.31    45878.220000
4959.94    46451.360000
4961.58    47450.480000
4963.21    47710.720000
4964.85    46129.660000
4966.48    45685.840000
4968.11    46289.740000
4969.75    45222.240000
4971.38    45753.490000
4973.02    46807.840000
4974.65    46939.130000
4976.28    48540.150000
4977.92    48392.690000
4979.55    48290.600000
4981.19    49739.820000
4982.82    48824.910000
4984.45    48344.470000
4986.09    46273.600000
4987.72    46094.230000
4989.35    45314.350000
4990.99    44541.760000
4992.62    44989.420000
4994.26    44859.310000
4995.89    45686.190000
4997.52    44592.570000
4999.16    44785.360000
5000.79    45629.550000
5002.43    45807.750000
5004.06    46213.890000
5005.69    45342.730000
5007.33    44783.080000
5008.96    44259.110000
5010.59    44537.220000
5012.23    43665.320000
5013.86    42427.090000
5015.50    42245.030000
5017.13    42528.160000
5018.76    42886.500000
5020.40    43077.120000
5022.03    43709.550000
5023.66    44107.950000
5025.30    44971.500000
5026.93    44509.510000
5028.57    44423.360000
5030.20    43794.800000
5031.83    42700.340000
5033.47    41496.770000
5035.10    41351.120000
5036.73    40785.310000
5038.37    40301.300000
5040.00    40467.830000
5041.64    41186.000000
5043.27    40721.750000
5044.90    40710.890000
5046.54    40586.180000
5048.17    39761.960000
5049.81    40550.430000
5051.44    41808.350000
5053.07    41419.180000
5054.71    41385.870000
5056.34    42505.890000
5057.98    42792.320000
5059.61    43311.270000
5061.24    43348.120000
5062.88    44178.100000
5064.51    43846.790000
5066.15    42927.080000
5067.78    43463.610000
5069.41    42700.630000
5071.05    41722.000000
5072.68    41401.440000
5074.31    41829.960000
5075.95    42492.250000
5077.58    42539.090000
5079.22    43060.460000
5080.85    43416.520000
5082.48    43516.820000
5084.12    43860.790000
5085.75    44146.530000
5087.39    45202.740000
5089.02    45177.590000
5090.65    45600.080000
5092.29    45183.480000
5093.92    45460.270000
5095.55    44752.240000
5097.19    44085.930000
5098.82    43811.150000
5100.46    43119.400000
5102.09    43732.860000
5103.72    43731.940000
5105.36    43130.820000
5106.99    42691.720000
5108.62    42628.730000
5110.26    42204.290000
5111.89    41390.650000
5113.53    41176.300000
5115.16    41383.790000
5116.79    41904.530000
5118.43    42549.740000
5120.06    43234.070000
5121.70    43757.280000
5123.33    43700.610000
5124.96    43347.290000
5126.60    43191.150000
5128.23    43767.550000
5129.86    43023.240000
5131.50    42141.120000
5133.13    41698.230000
5134.77    41426.430000
5136.40    41409.700000
5138.03    41569.180000
5139.67    41517.670000
5141.30    41921.690000
5142.94    42508.830000
5144.57    42207.050000
5146.20    42964.600000
5147.84    43920.450000
5149.47    43683.060000
5151.10    42766.890000
5152.74    43002.290000
5154.37    42086.510000
5156.01    41716.570000
5157.64    40752.230000
5159.27    40937.160000
5160.91    40622.120000
5162.54    40884.700000
5164.18    40564.230000
5165.81    41282.120000
5167.44    41750.770000
5169.08    41934.590000
5170.71    41609.270000
5172.35    40726.610000
5173.98    40788.270000
5175.61    40532.020000
5177.25    40998.190000
5178.88    40092.340000
5180.51    39344.700000
5182.15    39510.420000
5183.78    40734.710000
5185.42    40552.910000
5187.05    40820.580000
5188.68    40316.910000
5190.32    40259.140000
5191.95    40890.160000
5193.59    39114.750000
5195.22    38199.280000
5196.85    34917.230000
5198.49    32997.050000
5200.12    30472.100000
5201.75    31118.000000
5203.39    29020.800000
5205.02    28991.130000
5206.66    29881.960000
5208.29    30508.300000
5209.92    31155.890000
5211.56    31061.380000
5213.19    32161.900000
5214.82    30984.460000
5216.46    33350.250000
5218.09    33807.810000
5219.73    34967.200000
5221.36    36763.340000
5222.99    37810.410000
5224.63    38711.820000
5226.26    39419.650000
5227.90    40301.950000
5229.53    40203.290000
5231.16    40349.240000
5232.80    40540.840000
5234.43    39763.070000
5236.06    39578.710000
5237.70    38892.070000
5239.33    38044.820000
5240.97    38265.150000
5242.60    38393.730000
5244.23    38443.770000
5245.87    39171.240000
5247.50    41414.880000
5249.14    41752.920000
5250.77    42161.560000
5252.40    42398.230000
5254.04    41826.140000
5255.67    41722.770000
5257.31    41323.430000
5258.94    41450.620000
5260.57    41554.900000
5262.21    41256.980000
5263.84    41396.440000
5265.48    41897.550000
5267.11    42609.140000
5268.74    43353.980000
5270.38    43600.330000
5272.01    43206.610000
5273.64    44154.030000
5275.28    44656.910000
5276.91    43224.920000
5278.55    43516.910000
5280.18    43355.460000
5281.81    42938.730000
5283.45    42319.050000
5285.08    41607.610000
5286.71    42596.500000
5288.35    43104.350000
