#Wavelength     Flux    Sky Spectrum 
#[Angstrom]   [Counts]     [Counts]
4713.18    10.258909     3.983763
4713.78     3.112050     3.724668
4714.38     4.203938     6.027340
4714.98     8.113022     6.430356
4715.58     7.991427     5.028455
4716.18     7.969460     5.985147
4716.79     6.348944     4.834938
4717.39     4.974321     7.931353
4717.99     5.924026     8.196498
4718.59     9.614737     5.054356
4719.19    13.321985     3.911501
4719.79    12.351438     3.932611
4720.39     5.985402     5.419106
4720.99     1.344527     7.047280
4721.59     4.790163     6.033523
4722.19     9.200949     3.542339
4722.79     8.049484     3.001459
4723.40    12.466618     3.060252
4724.00    11.902429     2.360438
4724.60    11.231159     1.737057
4725.20    11.860395     2.476433
4725.80     9.572021     4.245084
4726.40     7.922719     5.032269
4727.00    11.064137     4.040226
4727.60    12.377875     4.890666
4728.20     8.775201     3.766092
4728.80     7.678671     2.203916
4729.40    10.969476     6.249552
4730.01     7.207840     9.938771
4730.61    10.614235     7.583080
4731.21    15.002407     4.292394
4731.81    14.243985     2.036341
4732.41    11.583541     1.194183
4733.01    10.941297     2.997943
4733.61    13.022364     1.261203
4734.21    10.535194     2.132480
4734.81     8.973335     2.988672
4735.41    10.132747     3.649069
4736.02    10.058861     6.074708
4736.62    11.022327     5.116798
4737.22    10.299062     5.036224
4737.82    14.747606     4.316006
4738.42    13.192270     4.480410
4739.02     4.883328     6.362926
4739.62     7.103067     7.000103
4740.22    13.505768     6.326288
4740.82    11.259360     4.381121
4741.42     3.292593     4.505494
4742.02     4.515378     4.563453
4742.63    12.493807     1.410773
4743.23     9.248409    -0.128324
4743.83     6.851741     4.922751
4744.43     8.462949     5.952644
4745.03     8.279946     4.575783
4745.63     7.032910     5.397417
4746.23     9.276678     5.924511
4746.83    10.335554     4.900280
4747.43     4.705475     7.444923
4748.03     2.253518     7.066506
4748.63     3.566370     6.021292
4749.24     5.885349     5.374917
4749.84    11.227455     1.929444
4750.44    15.895716     2.591044
4751.04    13.014109     5.085651
4751.64     8.834192     7.069900
4752.24     8.008926     6.077261
4752.84     9.364555     3.830499
4753.44    10.987879     4.008567
4754.04    11.005031     2.354484
4754.64    11.248345     1.734865
4755.24     9.967843     2.473433
4755.85    11.458401     3.234107
4756.45    14.963869     4.213884
4757.05    12.050340     5.915061
4757.65    14.418803     6.324252
4758.25    14.053694     4.263322
4758.85    12.934937     2.093010
4759.45    14.541164     2.430644
4760.05    14.870946     4.088856
4760.65    12.290253     3.254559
4761.25     9.872665     0.867434
4761.85     6.750773     3.593158
4762.46     6.907903     4.067737
4763.06    11.200292     2.218307
4763.66    12.900101     5.101705
4764.26    10.048937     4.250731
4764.86    12.503716     3.087867
4765.46    11.034422     3.102605
4766.06    11.746664     2.554034
4766.66    12.810568     2.146147
4767.26     4.906258     4.073326
4767.86     8.258802     6.509099
4768.46     9.385777     9.034517
4769.07     9.100320     6.987155
4769.67     8.252784     4.758931
4770.27     8.801470     4.677046
4770.87    12.999599     3.001811
4771.47     8.675261     5.779631
4772.07     9.040178     4.048007
4772.67     9.905779     3.253125
4773.27    11.190962     3.749861
4773.87    10.965206     3.185262
4774.47     4.952372     4.993156
4775.07    14.361662     3.403090
4775.68    14.232707     2.799958
4776.28    11.516211     3.056749
4776.88     9.034178     3.022109
4777.48     5.273286     2.939876
4778.08     9.981560     2.947198
4778.68     5.073673     5.285408
4779.28     5.225366     7.636853
4779.88     8.078485     7.598130
4780.48    12.242764     4.801882
4781.08    15.546413     3.142140
4781.68     8.231762     5.896364
4782.29    10.238400     5.379262
4782.89    10.164031     4.513694
4783.49    12.136944     2.797089
4784.09    10.515831     2.566910
4784.69     1.645174     5.139037
4785.29     6.464978     4.135397
4785.89    10.716181     3.010641
4786.49    10.290081     3.562889
4787.09     7.353504     4.153352
4787.69     6.094707     3.893457
4788.29     6.961875     4.095842
4788.90     5.169266     5.004573
4789.50     4.118237     4.128015
4790.10     3.819683     4.848185
4790.70     4.547276     7.239075
4791.30     4.763880     9.763192
4791.90     2.781077     9.664904
4792.50     1.866177     4.400201
4793.10     5.743932     3.011654
4793.70    13.905903     2.354944
4794.30    14.475768     2.341299
4794.91    10.865896     4.996897
4795.51    11.803915     6.950042
4796.11     7.995882     4.285427
4796.71    12.571434     3.040804
4797.31    13.545757     2.923415
4797.91    11.302835     3.225771
4798.51    10.718838     2.475858
4799.11     8.797191     1.034007
4799.71     8.507778     2.868673
4800.31    15.552238     2.414624
4800.91    14.999283     1.862963
4801.52     4.381368     5.126437
4802.12     5.079834     6.355077
4802.72    18.297760     2.984344
4803.32    12.425695     5.810178
4803.92    15.416566     4.584459
4804.52    11.355127     4.402138
4805.12     9.158915     4.804541
4805.72    13.021054     3.883853
4806.32     9.905972     3.992140
4806.92    10.305481     3.910539
4807.52     5.271750     5.070700
4808.13    10.196772     3.316195
4808.73    16.504276     1.843970
4809.33    14.056417     3.602408
4809.93     9.538292     5.026114
4810.53     3.504821     4.902388
4811.13     1.817104     6.649654
4811.73     2.723913     6.267694
4812.33     5.895725     3.974470
4812.93     7.927392     4.820401
4813.53     5.898412     8.093512
4814.13     6.697080     6.381165
4814.74     9.078583     4.370994
4815.34     6.832911     8.607007
4815.94     7.730263     7.962178
4816.54    13.102817     3.983058
4817.14    15.172420     7.109877
4817.74    15.578647     6.048249
4818.34     7.926216     7.123109
4818.94    11.225389     4.288457
4819.54    11.909958     1.315042
4820.14     8.972415     2.368066
4820.74    13.767361     2.992629
4821.35     6.052454     2.885113
4821.95    15.057164     4.679464
4822.55    16.541109     4.392776
4823.15     8.553002     4.602130
4823.75     7.814657     6.241158
4824.35     9.720210     7.194323
4824.95     3.251805     9.197790
4825.55     7.216333     4.322852
4826.15     9.347724     3.449483
4826.75     6.945712     5.911006
4827.35     5.732121     7.715186
4827.96     3.691973    10.093559
4828.56     1.566720     9.257854
4829.16     9.858515     6.704084
4829.76    11.643853     5.117006
4830.36     9.871611     5.242596
4830.96     9.228148     6.362710
4831.56     7.148808     6.972793
4832.16    11.694313     6.065300
4832.76    11.607325     6.052766
4833.36    15.710549     5.359501
4833.96    14.254173     5.201671
4834.57     8.581321     6.282913
4835.17    11.112588     5.822622
4835.77     9.327553     3.923513
4836.37     7.583570     6.637206
4836.97    10.235931     5.055911
4837.57     6.623095     5.283948
4838.17     8.317492     6.122627
4838.77    19.919487     0.727950
4839.37     7.910132     1.705655
4839.97     9.489960     4.161551
4840.57     9.788802     6.907883
4841.18     8.302117     5.264797
4841.78    12.134396     3.335609
4842.38    12.726929     7.297918
4842.98     8.222094     7.360883
4843.58    10.674370     2.834960
4844.18    18.649971     2.795953
4844.78    16.996168     4.255528
4845.38     8.034376     4.136752
4845.98     6.000482     5.039890
4846.58     7.620771     4.980770
4847.18    11.096143     5.698349
4847.79     7.850327     6.532588
4848.39    10.039334     7.614419
4848.99    12.942548     7.726063
4849.59     7.021382     5.840635
4850.19    12.725122     4.984132
4850.79     8.879325     5.710010
4851.39     6.188761     6.274341
4851.99    10.612490     5.369646
4852.59    10.677330     5.398385
4853.19     7.363048     7.016921
4853.79    17.233784     5.282632
4854.40    16.853207     3.257492
4855.00    11.774928     3.270383
4855.60    11.885286     4.810380
4856.20    14.407382     4.424767
4856.80    12.656521     3.140290
4857.40     8.266960     7.509488
4858.00     8.094311     9.829793
4858.60     6.163332     9.969521
4859.20     5.372362     7.098201
4859.80     7.386034     5.201184
4860.41     9.316758     6.971344
4861.01    13.067529     5.008894
4861.61     9.647590     7.011436
4862.21    16.462606     3.806102
4862.81    17.461239     3.311375
4863.41    10.591601     5.581089
4864.01    12.901230     1.946459
4864.61     8.186647     4.695766
4865.21    11.671469     4.575283
4865.81    11.936191     3.518597
4866.41     6.388226     5.003810
4867.02     5.909146     5.731136
4867.62    12.386766     3.971624
4868.22    15.093090     5.627905
4868.82    12.794058     7.864756
4869.42    11.564751     7.012978
4870.02     9.568216     5.709799
4870.62     8.454786     6.133890
4871.22    12.126716     5.941482
4871.82    12.093582     4.249097
4872.42    12.060081     3.093798
4873.02    11.498939     3.273363
4873.63    13.725481     4.884379
4874.23    15.655975     6.019088
4874.83    11.902689     4.946755
4875.43    13.283308     4.083507
4876.03    17.810751     3.839303
4876.63    15.346668     4.613977
4877.23    18.790277     4.879720
4877.83    22.497955     3.665385
4878.43     8.742681     3.017796
4879.03     7.784300     4.066865
4879.63     7.501280     2.000175
4880.24    15.705760     0.576660
4880.84    15.432281     4.142939
4881.44     7.294488     8.424019
4882.04    17.072168     6.966444
4882.64    15.953506     4.791711
4883.24    12.411366     8.114759
4883.84    12.281419     7.457382
4884.44    13.414976     4.384329
4885.04    15.723102     5.223189
4885.64    17.041351     5.995460
4886.24     8.394264     6.115971
4886.85     7.228792     5.247386
4887.45    11.017414     5.226216
4888.05    11.926556     6.595464
4888.65    10.838290     8.288795
4889.25     7.277028     9.944988
4889.85    -1.024445    10.613668
4890.45    14.263380     5.866817
4891.05    19.161501     4.131660
4891.65     8.360365     6.807332
4892.25     8.370568     6.744792
4892.85    10.065458     4.983077
4893.46     8.144965     6.869804
4894.06    16.091208     4.841721
4894.66    16.258511     2.021174
4895.26     4.383509     4.359846
4895.86     0.206902     8.178042
4896.46     7.221992     6.330588
4897.06    14.286818     2.622965
4897.66    13.671867     2.099181
4898.26    11.241430     4.036804
4898.86    10.791321     5.056385
4899.46     9.969818     5.070736
4900.07    10.024667     6.055027
4900.67    10.475628     3.929538
4901.27    17.773394     1.912431
4901.87    17.293848     2.728633
4902.47    12.315134     4.180038
4903.07    15.847050     5.131336
4903.67     6.930817     8.626471
4904.27     8.261966     8.875270
4904.87    15.004075     6.190996
4905.47    17.326546     7.535422
4906.07    15.345681     9.659369
4906.68    11.952714     5.982927
4907.28     9.900030     7.784120
4907.88    12.079615     5.957395
4908.48    12.953330     1.421120
4909.08    11.568336     2.556926
4909.68    15.547276     5.948488
4910.28    23.017946     3.025246
4910.88    15.375175     5.341428
4911.48    16.056669     6.302131
4912.08    17.252684     5.983640
4912.68    12.545692     5.762421
4913.29    11.045996     4.957389
4913.89    13.663236     5.019187
4914.49    17.925974     4.695415
4915.09    14.454637     6.974786
4915.69     8.634207     7.624684
4916.29    10.703007     3.449697
4916.89    16.069517     2.453153
4917.49    13.861546     9.855320
4918.09    18.672035     3.979818
4918.69    13.557123     3.702856
4919.30     9.202123     8.210358
4919.90    15.361081     6.051132
4920.50    16.946966     2.985439
4921.10    12.341160     5.383066
4921.70     4.843269     7.863268
4922.30     7.370536     7.084027
4922.90    15.999603     3.209208
4923.50    17.514030     2.760360
4924.10    12.114655     8.927143
4924.70    11.397171     7.136046
4925.30    22.043352     2.935786
4925.91    25.726736     1.985886
4926.51    18.349653     3.658496
4927.11    12.450318     5.100747
4927.71    10.882960     5.049774
4928.31    14.842528     4.276661
4928.91    22.314192     3.557662
4929.51    18.985435     5.378395
4930.11     7.494866     8.784965
4930.71     6.302023     8.831156
4931.31    12.711557     5.218735
4931.91     9.762678     6.394777
4932.52    12.289555     6.301280
4933.12    16.383101     4.495941
4933.72    13.476310     3.763439
4934.32    14.963158     2.995710
4934.92    22.791813     4.752188
4935.52    23.426634     4.508748
4936.12    13.559984     3.932985
4936.72    12.349663     6.062964
4937.32    22.642841     6.556812
4937.92    18.628263     2.045239
4938.52    11.996084     6.308812
4939.13    11.192700     9.509599
4939.73    15.286328     7.941700
4940.33    16.441629     5.301929
4940.93    14.081357     4.010298
4941.53    18.594501     4.964702
4942.13    16.249922     4.502204
4942.73     6.619843     7.776398
4943.33     3.581634     9.852121
4943.93     8.722227     7.871875
4944.53     9.039175     8.036064
4945.13     7.773602     5.273883
4945.74    10.784810     6.411969
4946.34    15.002248     5.794087
4946.94    15.792993     4.121161
4947.54    15.080142     4.805583
4948.14    16.161043     1.934766
4948.74    12.616436     6.019095
4949.34    14.054522     5.423606
4949.94    18.688038     5.007578
4950.54    18.410494     8.218421
4951.14    18.076244     5.960167
4951.74    25.937428     4.654255
4952.35    17.621653     7.962303
4952.95    12.413503     8.221721
4953.55    17.810509     5.026973
4954.15    18.669771     3.988255
4954.75    15.911547     4.058950
4955.35    20.280600     3.345351
4955.95    18.627279     7.854910
4956.55    18.240934     9.366773
4957.15    18.905207     5.064426
4957.75    14.068823     2.933806
4958.35    21.374187     1.798377
4958.96    17.344292     4.651454
4959.56    12.139262     6.950459
4960.16    13.945032     9.309744
4960.76    13.357262    12.067382
4961.36     8.934925     9.310923
4961.96    14.739085     5.392073
4962.56    14.163919     6.050699
4963.16    12.128685     6.870249
4963.76    16.112120     5.952107
4964.36    15.742859     7.064607
4964.96     6.845888     8.074605
4965.57     8.784073     6.631113
4966.17    15.957143     5.844403
4966.77    17.969463     5.871047
4967.37    18.512949     4.812335
4967.97    21.286396     4.820557
4968.57    11.151244     8.898912
4969.17     5.667667    10.737943
4969.77    12.041792     8.816786
4970.37    15.243433     6.617515
4970.97     8.934348     5.987707
4971.57    12.192410     6.436030
4972.18    14.094145    10.766527
4972.78    17.970360    11.238889
4973.38    16.545280     8.165283
4973.98     5.999905     8.181599
4974.58     3.867408     9.927666
4975.18     7.328579     9.779218
4975.78    17.294003    11.770935
4976.38    14.311239    12.909648
4976.98     3.205761    11.992605
4977.58    10.976821    11.008203
4978.18    20.393675     4.835335
4978.79    17.830229     5.196408
4979.39    13.587559     8.174718
4979.99    16.595331     5.304465
4980.59    19.931316     2.227347
4981.19    15.562811     9.231026
4981.79    14.314533    10.885791
4982.39    16.490929    12.760578
4982.99    16.265772    10.737925
4983.59    12.204518     6.088123
4984.19     9.047917    10.852295
4984.80    10.698047     9.678249
4985.40    15.650981     9.075506
4986.00    13.091812    10.826045
4986.60     7.597727    10.568904
4987.20    11.137215     7.929548
4987.80    14.450545     6.343667
4988.40    16.607849     4.624856
4989.00    13.169364     7.467128
4989.60    14.157896     9.901764
4990.20    19.769056     7.982337
4990.80    11.565678     9.839607
4991.41    13.988927     9.826985
4992.01    16.923180    11.690075
4992.61    15.360190    12.810992
4993.21    15.124517    10.645762
4993.81    15.998771     9.983965
4994.41    14.244909    10.792302
4995.01     9.034482    11.317735
4995.61     9.915687    13.312390
4996.21    14.443461    13.190871
4996.81    11.908363     8.965554
4997.41     9.653016    10.078359
4998.02    13.449307     7.053540
4998.62    11.167545     7.348043
4999.22    10.939787     8.208363
4999.82    17.982342     5.064375
5000.42    10.795782     8.815939
5001.02    10.952703     6.155046
5001.62    11.547624     5.949364
5002.22    12.044176     8.482341
5002.82    17.978123     6.457206
5003.42    21.193726     3.918354
5004.02    14.946245     7.813453
5004.63    12.241148     9.091830
5005.23    15.964266     7.292435
5005.83    17.791281     5.487744
5006.43    15.036792     3.972108
5007.03    14.284315     7.676536
5007.63     6.072823    11.519362
5008.23     7.953324     8.125845
5008.83    20.565460     3.811464
5009.43    22.942692     7.089628
5010.03    18.236237     8.841566
5010.63    13.712578     9.354177
5011.24    17.131670     7.833772
5011.84    21.162560     7.459495
5012.44    16.545130    10.126703
5013.04    12.785241     9.469842
5013.64    17.767410     5.969158
5014.24    20.856554     4.920820
5014.84    21.903591     4.389236
5015.44    22.557287     3.100013
5016.04    15.626577     5.754244
5016.64    14.342149     6.155371
5017.24    16.076357     6.167122
5017.85    20.259226     5.291958
5018.45    24.005789     4.073358
5019.05    21.138750     5.897680
5019.65    21.393234     5.997357
5020.25    17.589710     6.837724
5020.85    14.843734     8.882547
5021.45    14.283984    10.111739
5022.05    10.875551     9.123764
5022.65    19.507576     5.248342
5023.25    23.545637     1.798977
5023.85    20.105164     3.926258
5024.46    16.225515     7.030402
5025.06    14.978614     5.968596
5025.66    17.169209    11.031429
5026.26    13.833386    11.146661
5026.86    15.577516     7.062434
5027.46    18.116396     6.391407
5028.06    11.994837     9.013891
5028.66    17.270151     8.351726
5029.26    14.694223     7.536852
5029.86    11.824887     9.137641
5030.46    14.600999     9.606757
5031.07    14.988245     8.029328
5031.67    13.689544    11.364887
5032.27    10.192762    11.859572
5032.87    16.158060     6.556745
5033.47    25.659521     2.718749
5034.07    24.840178     4.010464
5034.67    21.498108     2.953754
5035.27    20.032310     5.049616
5035.87    20.223827     5.618608
5036.47    21.542423     3.461747
5037.07    21.873482     5.353486
5037.68    18.404238    12.343222
5038.28    17.585890    11.512016
5038.88    11.120664     9.436296
5039.48    12.217442     8.081203
5040.08    25.334528     4.915651
5040.68    18.243130     7.088939
5041.28     9.058079    12.377626
5041.88    17.334930    10.563025
5042.48    26.821770     4.469398
5043.08    24.053019     3.017231
5043.69    27.409229     4.528902
5044.29    18.570728     7.359582
5044.89    15.919618     7.791473
5045.49    20.726187     8.993195
5046.09    18.810150    10.827435
5046.69    15.878466     6.166866
5047.29    10.270341     9.722578
5047.89    13.805060     8.769791
5048.49    15.266093     6.879405
5049.09     8.017982    10.915295
5049.69    16.462248     4.760159
5050.30    18.754610     5.825411
5050.90    10.916214     9.470596
5051.50     7.504519     8.123222
5052.10    13.246366     6.023376
5052.70    14.113090     9.182600
5053.30    14.282609    12.450860
5053.90    16.250914    12.823241
5054.50    16.620132    11.692582
5055.10    16.123268     9.858558
5055.70    21.890966     5.714006
5056.30    23.461205     4.125065
5056.91    12.712910     7.026481
5057.51     6.894872     8.821425
5058.11    18.231571     5.940855
5058.71    22.547466     5.001843
5059.31    24.744127     4.980007
5059.91    20.345547     5.142945
5060.51    14.616254     6.561672
5061.11    19.000000     8.000000
5061.71    23.219341     5.530814
5062.31    19.133200     5.345428
5062.91    17.725866     9.242112
5063.52    21.511364    12.177199
5064.12    19.176403    10.093939
5064.72    12.546717     7.303717
