#Wavelength     Flux
#[Angstrom]   [Counts]
3923.59    -1125.298000
3925.22    -311.324000
3926.84    -1181.432000
3928.46    -964.374500
3930.09    -874.896900
3931.71    -385.611300
3933.34    -766.990500
3934.96    -541.101400
3936.58    -1004.262000
3938.21    -692.134300
3939.83    -243.180600
3941.46    -798.079100
3943.08    -716.825300
3944.70    -482.333500
3946.33    -834.139000
3947.95    -1280.704000
3949.58    -1116.439000
3951.20    -886.973000
3952.82    -904.805500
3954.45    -406.325600
3956.07    -491.215200
3957.70    -693.879500
3959.32    -1184.468000
3960.94    -1016.757000
3962.57    -766.442700
3964.19    -941.196500
3965.82    -469.066500
3967.44    -631.137900
3969.06    -317.626700
3970.69    -854.795800
3972.31    -286.403200
3973.94    -352.706200
3975.56    -596.544800
3977.18    -671.270600
3978.81    -491.337800
3980.43    -501.401300
3982.06    -618.248100
3983.68    -413.047500
3985.30    -460.742800
3986.93    -364.682500
3988.55    -397.448400
3990.18    -754.760900
3991.80    -343.396000
3993.43    -476.223000
3995.05    -466.167500
3996.67    -1007.213000
3998.30    -728.505700
3999.92    -820.352300
4001.55    -418.095600
4003.17    -406.327800
4004.79    -678.183100
4006.42    -523.932500
4008.04    -235.910400
4009.67    -738.934600
4011.29    -861.482600
4012.91    -895.723300
4014.54    -895.719900
4016.16    -418.315900
4017.79    -375.100900
4019.41    -449.186500
4021.03    -333.453000
4022.66    -447.058200
4024.28    -390.852700
4025.91    -293.225100
4027.53    -522.874500
4029.15    -442.581300
4030.78    -506.351800
4032.40    -638.531900
4034.03    -479.601500
4035.65    -431.983200
4037.27    -769.561600
4038.90    -513.560400
4040.52    -370.920600
4042.15    -753.399500
4043.77    -685.264000
4045.39    -353.031200
4047.02    -417.346300
4048.64    -784.501900
4050.27    -505.596900
4051.89    -447.037600
4053.51    -416.364800
4055.14    -513.073200
4056.76    -361.765900
4058.39    -124.004200
4060.01    -570.508500
4061.64    -389.142900
4063.26    -145.706000
4064.88    -359.523100
4066.51    -566.196700
4068.13    -612.485000
4069.76    -388.770100
4071.38    -276.619200
4073.00    -367.882000
4074.63    -413.772100
4076.25    -363.168900
4077.88    -228.289900
4079.50    -503.348000
4081.12    -577.610400
4082.75    -396.703600
4084.37    -364.771200
4086.00    -475.199800
4087.62    -535.202900
4089.24    -442.205600
4090.87    -364.643200
4092.49    -425.991300
4094.12    -379.389000
4095.74    -314.901900
4097.36    -388.721500
4098.99    -333.871900
4100.61    -345.939900
4102.24    -379.974100
4103.86    -375.074200
4105.48    -243.272700
4107.11    -251.020800
4108.73    -55.099380
4110.36    -277.493800
4111.98    -394.212700
4113.60    -403.299900
4115.23    -329.366700
4116.85    -189.730100
4118.48    -403.291400
4120.10    -470.807300
4121.73    -436.145100
4123.35    -452.184600
4124.97    -295.983900
4126.60    -381.881100
4128.22    -286.022800
4129.85    -273.212800
4131.47    -287.016000
4133.09    -371.147100
4134.72    -510.373500
4136.34    -486.086600
4137.97    -440.847200
4139.59    -324.752600
4141.21    -200.037800
4142.84    -319.719500
4144.46    -367.206900
4146.09    -397.241200
4147.71    -358.670600
4149.33    -248.413300
4150.96    -223.080800
4152.58    -142.628300
4154.21    -227.621200
4155.83    -142.481700
4157.45    -239.193200
4159.08    -395.878400
4160.70    -78.318430
4162.33    -192.488900
4163.95    -192.938000
4165.57    -100.680800
4167.20    -346.312500
4168.82    -381.584200
4170.45    -394.269100
4172.07    -156.435000
4173.69    -35.819140
4175.32    -523.041800
4176.94    -282.777900
4178.57    -421.904500
4180.19    -281.865700
4181.81    -124.623100
4183.44    -408.673300
4185.06    -206.882100
4186.69    -137.516300
4188.31    -171.291000
4189.94    -295.570700
4191.56    -359.464300
4193.18    -336.391500
4194.81    -295.184500
4196.43    -70.839520
4198.06    -180.400700
4199.68    -334.448500
4201.30    -326.988100
4202.93    -377.550300
4204.55    15.780160
4206.18    -115.949200
4207.80    -114.297400
4209.42    -134.412900
4211.05    -188.574000
4212.67    -545.543600
4214.30    -214.920500
4215.92    -325.833200
4217.54    -120.395100
4219.17    -294.189800
4220.79    -470.483000
4222.41    -343.694200
4224.04    -341.838400
4225.66    -269.788800
4227.29    -272.178100
4228.91    -46.986130
4230.54    -241.712300
4232.16    -33.801900
4233.78    -281.737400
4235.41    -93.850350
4237.03    -311.254900
4238.66    -280.908800
4240.28    -298.344300
4241.90    -245.795800
4243.53    -164.234100
4245.15    -130.289000
4246.78    -253.870100
4248.40    -136.462100
4250.02    -277.460200
4251.65    -298.218800
4253.27    -76.723750
4254.90    -185.548300
4256.52    -171.836900
4258.14    -219.215200
4259.77    -388.907400
4261.39    -319.391800
4263.02    -223.206700
4264.64    -425.178400
4266.26    -123.046900
4267.89    -163.561800
4269.51    -343.363900
4271.14    -145.227600
4272.76    -266.825300
4274.39    -322.485300
4276.01    -154.497500
4277.63    -376.474300
4279.26    -333.458200
4280.88    -326.011800
4282.51    -339.425900
4284.13    -144.815400
4285.75    -225.705200
4287.38    -152.093200
4289.00    -327.003000
4290.62    -376.266300
4292.25    -253.558200
4293.87    -160.142300
4295.50    -182.651300
4297.12    -188.828600
4298.74    -59.281210
4300.37    -216.442400
4301.99    -121.926100
4303.62    -41.434900
4305.24    -203.005100
4306.86    -117.667600
4308.49    -250.548100
4310.11    -370.257300
4311.74    -228.763300
4313.36    -222.240700
4314.99    43.671260
4316.61    -184.011500
4318.23    -146.317900
4319.86    -214.707400
4321.48    -261.859400
4323.11    -32.578680
4324.73    -39.465830
4326.35    -149.554200
4327.98    -45.067080
4329.60    -194.665100
4331.23    -102.527400
4332.85    -69.846320
4334.47    -191.879900
4336.10    -171.264100
4337.72    -132.024700
4339.35    -267.908600
4340.97    -266.793900
4342.59    -131.123000
4344.22    -259.391600
4345.84    -220.546700
4347.47    -284.072700
4349.09    -206.146300
4350.71    -236.230600
4352.34    -191.703600
4353.96    -241.103100
4355.59    -243.518200
4357.21    -211.543600
4358.84    -238.094400
4360.46    -316.884800
4362.08    -285.744000
4363.71    -165.796700
4365.33    -33.154080
4366.95    -81.803050
4368.58    -188.140500
4370.20    -150.160900
4371.83    -296.244100
4373.45    -329.923400
4375.07    -184.524000
4376.70    -284.996400
4378.32    -313.421500
4379.95    -67.671980
4381.57    -150.155600
4383.19    -199.222300
4384.82    -197.934900
4386.44    -16.263950
4388.07    -62.352370
4389.69    -191.990600
4391.31    -144.303300
4392.94    -214.894900
4394.56    -334.649700
4396.19    -257.500900
4397.81    -206.160900
4399.44    12.871630
4401.06    -43.906780
4402.68    -122.929000
4404.31    -251.641900
4405.93    32.527420
4407.56    54.792640
4409.18    -220.233300
4410.80    -146.776200
4412.43    -248.555800
4414.05    -61.011040
4415.68    -118.111800
4417.30    -187.861900
4418.92    -120.226900
4420.55    -190.955500
4422.17    -183.473400
4423.80    -143.147200
4425.42    -280.422500
4427.04    -103.471900
4428.67    -132.029500
4430.29    -56.903730
4431.92    36.294370
4433.54    -32.372460
4435.16    -64.444490
4436.79    -47.267270
4438.41    -41.258650
4440.04    -109.927800
4441.66    -262.734400
4443.28    47.966240
4444.91    -149.084000
4446.53    -253.851400
4448.16    -147.910000
4449.78    -136.306100
4451.40    -115.427200
4453.03    -152.947800
4454.65    -31.076830
4456.28    -135.832100
4457.90    -40.811490
4459.52    -25.135350
4461.15    101.475300
4462.77    71.191700
4464.40    139.997600
4466.02    119.505200
4467.65    176.184600
4469.27    -27.658320
4470.89    94.371100
4472.52    -77.605020
4474.14    -17.290640
4475.77    78.718800
4477.39    -31.276810
4479.01    -81.386630
4480.64    10.133120
4482.26    -24.125250
4483.89    -40.458930
4485.51     5.993965
4487.13    250.754700
4488.76    27.464140
4490.38    49.095910
4492.01    -100.118600
4493.63    136.052500
4495.25    85.035860
4496.88    -22.416330
4498.50    12.358610
4500.13    11.550770
4501.75    -44.231390
4503.38    -12.751020
4505.00    32.530810
4506.62    38.026420
4508.25    55.085020
4509.87    -22.488170
4511.49    -43.788470
4513.12    84.103820
4514.74    160.996000
4516.37    61.470250
4517.99    118.509800
4519.61    298.715800
4521.24    -72.376790
4522.86    45.156460
4524.49    205.715200
4526.11    43.119400
4527.73    81.405870
4529.36    187.616500
4530.98    -13.367630
4532.61    -40.219920
4534.23    167.558500
4535.85    160.275700
4537.48    85.941270
4539.10    66.302220
4540.73    132.812300
4542.35    101.087100
4543.98    118.467800
4545.60    235.385300
4547.22    87.001210
4548.85    377.602200
4550.47    459.685100
4552.10    270.036700
4553.72    12.184540
4555.34    128.415500
4556.97    369.385600
4558.59    448.169200
4560.22    241.536300
4561.84    105.375800
4563.46    143.911800
4565.09    176.751000
4566.71    118.330300
4568.34    68.682350
4569.96    125.906800
4571.58    157.289400
4573.21    135.737200
4574.83    81.151210
4576.46    232.041300
4578.08    255.323000
4579.70    206.769100
4581.33    231.340600
4582.95    127.147600
4584.58    85.587470
4586.20    141.752100
4587.82    98.509610
4589.45    111.890700
4591.07    106.077600
4592.70    165.715300
4594.32    112.105900
4595.94    121.844900
4597.57    194.654200
4599.19    98.474630
4600.82    104.448700
4602.44    236.185700
4604.06    191.307500
4605.69    117.175600
4607.31    178.834300
4608.94    53.225540
4610.56    168.782600
4612.19    244.312500
4613.81    238.216300
4615.43    168.496200
4617.06    215.548300
4618.68    211.937300
4620.31    64.759540
4621.93    96.641490
4623.55    187.675300
4625.18    71.709290
4626.80    17.345090
4628.43    118.784700
4630.05    46.496590
4631.67    374.422200
4633.30    360.198700
4634.92    128.110700
4636.55    361.281500
4638.17    239.094600
4639.79    198.633200
4641.42    242.753100
4643.04    83.843510
4644.67    43.751510
4646.29    77.957620
4647.91    102.811500
4649.54    220.583400
4651.16    181.253000
4652.79    257.266300
4654.41    75.139710
4656.03    107.538100
4657.66    210.131100
4659.28    223.847000
4660.91    202.919500
4662.53    215.131800
4664.15    220.728800
4665.78    199.968600
4667.40    206.149800
4669.03    315.536300
4670.65    232.909700
4672.27    143.765900
4673.90    48.226130
4675.52    202.551500
4677.15    226.369400
4678.77    176.026100
4680.40    263.742000
4682.02    165.510200
4683.64    243.670200
4685.27    283.162300
4686.89    75.624310
4688.52    112.792200
4690.14    194.807300
4691.76    320.784600
4693.39    245.685200
4695.01    267.242100
4696.64    251.699400
4698.26    246.338300
4699.88    278.995200
4701.51    325.297700
4703.13    254.994000
4704.76    249.282500
4706.38    350.734300
4708.00    245.740900
4709.63    100.427800
4711.25    126.958500
4712.88    84.112430
4714.50    164.452900
4716.12    163.260600
4717.75    186.892900
4719.37    172.799500
4721.00    60.455800
4722.62    125.107500
4724.24    153.452900
4725.87    253.568400
4727.49    270.162600
4729.12    63.497810
4730.74    287.469300
4732.36    228.737000
4733.99    62.604240
4735.61    68.250140
4737.24    242.871900
4738.86    375.307600
4740.48    254.942500
4742.11    114.524100
4743.73    92.527350
4745.36    148.348900
4746.98    175.823800
4748.60    201.307900
4750.23    252.555200
4751.85    345.059600
4753.48    231.892800
4755.10    186.162500
4756.73    124.411200
4758.35    242.936900
4759.97    309.266100
4761.60    332.183300
4763.22    101.923300
4764.85    233.312700
4766.47    258.513200
4768.09    270.532600
4769.72    187.280200
4771.34    245.860800
4772.97    285.970400
4774.59    249.915100
4776.21    84.115790
4777.84    241.161700
4779.46    224.755000
4781.09    220.928100
4782.71    210.445800
4784.33    180.281300
4785.96    264.089400
4787.58    238.839700
4789.21    229.944200
4790.83    188.529400
4792.45    104.438900
4794.08    211.136200
4795.70    328.876000
4797.33    173.053500
4798.95    321.026700
4800.57    295.803600
4802.20    147.282100
4803.82    255.822800
4805.45    131.775800
4807.07    169.281500
4808.69    226.897800
4810.32    220.379300
4811.94    264.321400
4813.57    239.675300
4815.19    238.415800
4816.81    481.255000
4818.44    219.810800
4820.06    378.684000
4821.69    146.528400
4823.31    88.709500
4824.94    209.975800
4826.56    190.021000
4828.18    228.763300
4829.81    261.505200
4831.43    112.403500
4833.06    221.017700
4834.68    38.316470
4836.30    234.252200
4837.93    278.781700
4839.55    246.857400
4841.18    212.260900
4842.80    232.775900
4844.42    255.698400
4846.05    28.498460
4847.67    230.248700
4849.30    256.834700
4850.92    246.754200
4852.54    373.859700
4854.17    232.557500
4855.79    291.326000
4857.42    180.673100
4859.04    204.042100
4860.66    270.267500
4862.29    179.368500
4863.91    212.400100
4865.54    68.102390
4867.16    202.361100
4868.78    323.858200
4870.41    292.605600
4872.03    407.201100
4873.66    315.400300
4875.28    206.479000
4876.90    158.814300
4878.53    181.437900
4880.15    143.878400
4881.78    245.283500
4883.40    153.948400
4885.02    150.619900
4886.65    348.813200
4888.27    107.653400
4889.90    119.492000
4891.52    193.868300
4893.15    256.455900
4894.77    306.463900
4896.39    291.569200
4898.02    238.336700
4899.64    255.211700
4901.27    289.222800
4902.89    283.120200
4904.51    215.785700
4906.14    259.236800
4907.76    316.613000
4909.39    148.756900
4911.01    119.775500
4912.63    233.379200
4914.26    201.179700
4915.88    154.295100
4917.51    348.995300
4919.13    293.710200
4920.75    301.291400
4922.38    306.180400
4924.00    214.616700
4925.63    194.439100
4927.25    217.712700
4928.87    240.384900
4930.50    216.731500
4932.12    218.372300
4933.75    199.611100
4935.37    118.934300
4936.99    116.449500
4938.62    203.750300
4940.24    283.964700
4941.87    246.194500
4943.49    152.118700
4945.11    112.711700
4946.74    99.117640
4948.36    254.582600
4949.99    258.396600
4951.61    230.418500
4953.23    242.083500
4954.86    98.527870
4956.48    195.334800
4958.11    198.304400
4959.73    237.859000
4961.35    397.214400
4962.98    233.237200
4964.60    220.557500
4966.23    202.446500
4967.85    241.890600
4969.48    340.984900
4971.10    262.675400
4972.72    270.618900
4974.35    253.894000
4975.97    213.149000
4977.60    390.971300
4979.22    445.766500
4980.84    320.070900
4982.47    324.471400
4984.09    330.638800
4985.72    364.979100
4987.34    305.633600
4988.96    171.318300
4990.59    227.493200
4992.21    365.680500
4993.84    338.217000
4995.46    324.584500
4997.08    280.329200
4998.71    218.838300
5000.33    233.576300
5001.96    268.422200
5003.58    306.392900
5005.20    208.090300
5006.83    172.188100
5008.45    292.843100
5010.08    282.044100
5011.70    212.432600
5013.32    294.655500
5014.95    436.367800
5016.57    335.946400
5018.20    257.015400
5019.82    198.781300
5021.44    319.124300
5023.07    305.828700
5024.69    394.030600
5026.32    460.057300
5027.94    301.377500
5029.56    168.006500
5031.19    248.352000
5032.81    310.174700
5034.44    294.075500
5036.06    242.091800
5037.69    400.756000
5039.31    444.627100
5040.93    415.179800
5042.56    367.765800
5044.18    352.515200
5045.81    243.000000
5047.43    156.431500
5049.05    311.340500
5050.68    288.205700
5052.30    201.869100
5053.93    212.296400
5055.55    317.998700
5057.17    200.061100
5058.80    236.830300
5060.42    360.181500
5062.05    191.645600
5063.67    125.323500
5065.29    165.192100
5066.92    325.328000
5068.54    351.752700
5070.17    377.544000
5071.79    353.330400
5073.41    308.858600
5075.04    314.232900
5076.66    286.584900
5078.29    337.249300
5079.91    356.503200
5081.53    280.764500
5083.16    310.597400
5084.78    353.661400
5086.41    349.708500
5088.03    343.164200
5089.65    389.823100
5091.28    379.978200
5092.90    260.325600
5094.53    206.876800
5096.15    268.458700
5097.77    262.635400
5099.40    171.007300
5101.02    171.191300
5102.65    252.362400
5104.27    298.347200
5105.90    316.856100
5107.52    357.648600
5109.14    311.181900
5110.77    164.916200
5112.39    311.264800
5114.02    365.018400
5115.64    338.841200
5117.26    317.321700
5118.89    318.428100
5120.51    183.762800
5122.14    196.013300
5123.76    213.198500
5125.38    279.935300
5127.01    234.332200
5128.63    147.785400
5130.26    163.070200
5131.88    242.085400
5133.50    226.795800
5135.13    197.664700
5136.75    266.825700
5138.38    363.254200
5140.00    341.520600
5141.62    348.135300
5143.25    389.608900
5144.87    371.483300
5146.50    456.046400
5148.12    348.223100
5149.74    214.979900
5151.37    211.008500
5152.99    264.136400
5154.62    253.157700
5156.24    237.060500
5157.86    297.564300
5159.49    346.521800
5161.11    296.630400
5162.74    170.268200
5164.36    99.608040
5165.98    137.684200
5167.61    302.712000
5169.23    249.544700
5170.86    282.923600
5172.48    268.770100
5174.10    200.132600
5175.73    143.515600
5177.35    271.475600
5178.98    193.964200
5180.60    67.407010
5182.23    249.841700
5183.85    216.616500
5185.47    242.581900
5187.10    248.659800
5188.72    295.455300
5190.35    305.102700
5191.97    346.156200
5193.59    214.587400
5195.22    210.250800
5196.84    283.515300
5198.47    177.310400
5200.09    103.723600
5201.71    233.866300
5203.34    155.126800
5204.96    256.141600
5206.59    157.812900
5208.21    179.798800
5209.83    196.741200
5211.46    298.781600
5213.08    319.464900
5214.71    187.512000
5216.33    200.211700
5217.95    252.394500
5219.58    120.574700
5221.20    191.625500
5222.83    234.676800
5224.45    251.391200
5226.07    301.725600
5227.70    237.487000
5229.32    232.938200
5230.95    252.879600
5232.57    222.785200
5234.19    146.039400
5235.82    284.883700
5237.44    179.275700
5239.07    201.836200
5240.69    240.431900
5242.31    210.811300
5243.94    268.656800
5245.56    126.220300
5247.19    167.318900
5248.81    231.056700
5250.44    168.531500
5252.06    90.009740
5253.68    101.898900
5255.31    91.870470
5256.93    103.630600
5258.56    137.451200
5260.18    112.911900
5261.80    63.205090
5263.43    44.573640
5265.05    186.919600
5266.68    181.790500
5268.30    115.342500
5269.92    74.249920
5271.55    175.326400
5273.17    168.749000
5274.80    144.124700
5276.42    115.510600
5278.04    74.622760
5279.67     8.069015
5281.29    186.456600
5282.91    243.974300
5284.54    208.094800
5286.16    172.125400
5287.79    158.547400
5289.41    214.909600
5291.04    178.945700
5292.66    59.511250
5294.28    183.605800
5295.91    52.342080
5297.53    75.761470
5299.16    46.292430
5300.78    255.743100
5302.40    244.436000
5304.03    219.339900
5305.65    192.433900
5307.28    276.233200
5308.90    273.178800
5310.52    187.598600
5312.15    168.342300
5313.77    29.812790
5315.40    230.031900
5317.02    326.559100
5318.64    294.119700
5320.27    259.914600
5321.89    145.301200
5323.52    225.942600
5325.14    311.475900
5326.76    358.225600
5328.39    341.119600
5330.01    441.525200
5331.64    341.932300
5333.26    195.685800
5334.89    56.317410
5336.51    205.742200
5338.13    203.892800
5339.76    211.902200
5341.38    335.791600
5343.01    285.680400
5344.63    363.508400
5346.25    217.312500
5347.88    250.990800
5349.50    245.527500
5351.12    133.007800
5352.75    175.104100
5354.37    147.677700
5356.00    161.660600
5357.62    185.859200
5359.24    226.747900
5360.87    246.556000
5362.49    244.452800
5364.12    292.392500
5365.74    385.810600
5367.36    316.931400
5368.99    269.699500
5370.61    317.695200
5372.24    203.083800
5373.86    283.839500
5375.49    279.192000
5377.11    248.643200
