#Wavelength     Flux
#[Angstrom]   [Counts]
3913.05     0.000000
3914.68     0.000000
3916.32     0.000000
3917.95     0.000000
3919.59     0.000000
3921.23     0.000000
3922.86     0.000000
3924.50     0.000000
3926.14     0.000000
3927.77     0.000000
3929.41     0.000000
3931.04     0.000000
3932.68     0.000000
3934.32     0.000000
3935.95     0.000000
3937.59     0.000000
3939.22     0.000000
3940.86     0.000000
3942.50     0.000000
3944.13     0.000000
3945.77     0.000000
3947.41     0.000000
3949.04     0.000000
3950.68     0.000000
3952.31     0.000000
3953.95     0.000000
3955.59     0.000000
3957.22     0.000000
3958.86     0.000000
3960.49     0.000000
3962.13     0.000000
3963.77     0.000000
3965.40     0.000000
3967.04    2266.813000
3968.68    2302.250000
3970.31    2653.056000
3971.95    2558.864000
3973.59    2837.050000
3975.22    2916.589000
3976.86    2892.406000
3978.49    3038.590000
3980.13    2669.630000
3981.77    2418.364000
3983.40    2084.404000
3985.04    2136.494000
3986.67    1891.245000
3988.31    1678.511000
3989.95    1586.848000
3991.58    1546.183000
3993.22    1559.467000
3994.86    1253.324000
3996.49    1475.354000
3998.13    1642.195000
3999.76    2184.788000
4001.40    2337.867000
4003.04    2029.734000
4004.67    2228.069000
4006.31    2721.097000
4007.95    2688.831000
4009.58    2702.439000
4011.22    3088.497000
4012.85    3106.842000
4014.49    2969.206000
4016.13    2886.639000
4017.76    2643.211000
4019.40    2519.642000
4021.03    2460.907000
4022.67    2123.584000
4024.31    1816.222000
4025.94    1662.715000
4027.58    1270.229000
4029.22    1556.756000
4030.85    2000.137000
4032.49    2031.359000
4034.12    2326.995000
4035.76    2425.369000
4037.40    2821.189000
4039.03    3183.176000
4040.67    3088.718000
4042.30    3236.186000
4043.94    3194.630000
4045.58    3520.261000
4047.21    3534.093000
4048.85    3783.863000
4050.49    3988.569000
4052.12    3796.727000
4053.76    3699.272000
4055.39    3778.151000
4057.03    3940.385000
4058.67    3654.565000
4060.30    3765.782000
4061.94    4071.987000
4063.58    4049.492000
4065.21    3980.417000
4066.85    3967.380000
4068.49    3932.658000
4070.12    4057.275000
4071.76    4330.414000
4073.39    4123.057000
4075.03    4100.437000
4076.67    4111.806000
4078.30    4332.394000
4079.94    4282.125000
4081.57    4119.912000
4083.21    4050.025000
4084.85    4340.668000
4086.48    4220.060000
4088.12    4155.089000
4089.76    4159.104000
4091.39    3823.171000
4093.03    3895.446000
4094.66    4027.028000
4096.30    3831.342000
4097.94    4063.044000
4099.57    3977.917000
4101.21    3831.165000
4102.85    3708.160000
4104.48    3724.707000
4106.12    4080.603000
4107.75    3747.512000
4109.39    3738.197000
4111.03    3774.754000
4112.66    3888.269000
4114.30    4098.747000
4115.94    3702.372000
4117.57    3750.023000
4119.21    3975.821000
4120.84    3776.159000
4122.48    3568.928000
4124.12    3642.285000
4125.75    3691.902000
4127.39    3677.882000
4129.02    3500.750000
4130.66    3609.634000
4132.30    3751.149000
4133.93    3854.959000
4135.57    3888.704000
4137.20    3845.198000
4138.84    3770.532000
4140.48    3637.618000
4142.11    3801.550000
4143.75    4035.660000
4145.39    3912.043000
4147.02    3927.630000
4148.66    4330.368000
4150.30    4268.241000
4151.93    4230.840000
4153.57    4374.046000
4155.20    4338.195000
4156.84    4008.061000
4158.48    4025.252000
4160.11    3947.027000
4161.75    3652.961000
4163.39    3539.956000
4165.02    3748.179000
4166.66    3877.586000
4168.29    3763.915000
4169.93    3788.500000
4171.56    4126.026000
4173.20    4116.474000
4174.84    4172.661000
4176.47    4210.219000
4178.11    4132.760000
4179.75    3909.619000
4181.38    3840.130000
4183.02    3801.582000
4184.65    3930.141000
4186.29    3914.165000
4187.93    4077.837000
4189.56    3888.785000
4191.20    3879.164000
4192.84    3722.186000
4194.47    3650.964000
4196.11    3854.431000
4197.74    4130.341000
4199.38    4026.700000
4201.02    3811.430000
4202.65    3726.637000
4204.29    3956.492000
4205.93    3910.056000
4207.56    3656.357000
4209.20    3679.672000
4210.83    3842.612000
4212.47    3773.516000
4214.11    3774.551000
4215.74    3653.139000
4217.38    3689.051000
4219.02    3623.196000
4220.65    3732.446000
4222.29    3992.548000
4223.92    3997.022000
4225.56    4097.709000
4227.20    4065.104000
4228.83    4137.659000
4230.47    3871.714000
4232.10    3783.932000
4233.74    4044.707000
4235.38    4088.171000
4237.01    3829.725000
4238.65    3900.843000
4240.29    3744.043000
4241.92    3736.818000
4243.56    3841.434000
4245.19    3813.994000
4246.83    3856.051000
4248.47    4039.376000
4250.10    4165.685000
4251.74    4136.087000
4253.38    4153.841000
4255.01    3982.557000
4256.65    3921.120000
4258.28    3840.928000
4259.92    3837.706000
4261.56    3720.352000
4263.19    3915.491000
4264.83    3902.224000
4266.47    3753.002000
4268.10    3873.676000
4269.74    3981.612000
4271.37    4058.415000
4273.01    4083.998000
4274.65    4105.696000
4276.28    4215.770000
4277.92    4242.502000
4279.56    4365.754000
4281.19    4158.484000
4282.83    4158.494000
4284.46    4196.492000
4286.10    4140.127000
4287.74    3917.322000
4289.37    3760.631000
4291.01    3523.368000
4292.65    3621.083000
4294.28    3671.995000
4295.92    3831.649000
4297.55    4091.715000
4299.19    4028.707000
4300.83    3954.247000
4302.46    4152.452000
4304.10    4254.067000
4305.73    4307.215000
4307.37    4408.098000
4309.01    4327.918000
4310.64    4424.052000
4312.28    4457.437000
4313.92    4194.687000
4315.55    4156.549000
4317.19    4144.176000
4318.82    4316.821000
4320.46    4173.533000
4322.10    4003.664000
4323.73    4180.878000
4325.37    4361.336000
4327.01    4410.269000
4328.64    4437.049000
4330.28    4471.631000
4331.91    4518.371000
4333.55    4282.999000
4335.19    4253.569000
4336.82    4030.580000
4338.46    3837.192000
4340.10    3965.500000
4341.73    4189.278000
4343.37    4239.214000
4345.00    4310.525000
4346.64    4319.703000
4348.28    4237.183000
4349.91    4152.087000
4351.55    4149.450000
4353.19    4132.861000
4354.82    4080.578000
4356.46    4013.230000
4358.09    3965.877000
4359.73    3863.038000
4361.36    3700.142000
4363.00    3592.727000
4364.64    3502.937000
4366.27    3451.912000
4367.91    3243.865000
4369.55    3157.205000
4371.18    3029.671000
4372.82    3059.925000
4374.45    3260.241000
4376.09    3538.646000
4377.73    3791.036000
4379.36    4073.352000
4381.00    4246.978000
4382.64    4631.955000
4384.27    4675.902000
4385.91    4763.392000
4387.55    4747.071000
4389.18    4407.495000
4390.82    4423.743000
4392.45    4556.161000
4394.09    4756.438000
4395.73    4842.260000
4397.36    4960.626000
4399.00    4923.633000
4400.63    4921.916000
4402.27    4811.896000
4403.91    4614.817000
4405.54    4684.842000
4407.18    4742.894000
4408.81    4669.990000
4410.45    4684.963000
4412.09    4790.752000
4413.72    4917.844000
4415.36    4954.324000
4417.00    5020.446000
4418.63    5073.742000
4420.27    4997.155000
4421.90    5078.530000
4423.54    5067.616000
4425.18    5149.477000
4426.81    5103.228000
4428.45    5174.881000
4430.09    5188.417000
4431.72    5370.480000
4433.36    5330.665000
4434.99    5328.586000
4436.63    5068.782000
4438.27    5048.260000
4439.90    4977.708000
4441.54    4898.815000
4443.18    4913.122000
4444.81    4822.501000
4446.45    4684.032000
4448.08    4789.553000
4449.72    4533.650000
4451.36    4520.681000
4452.99    4519.764000
4454.63    4610.271000
4456.27    4642.603000
4457.90    4900.361000
4459.54    5109.840000
4461.17    5092.977000
4462.81    4930.959000
4464.45    4971.170000
4466.08    5158.805000
4467.72    5234.856000
4469.35    4948.186000
4470.99    4957.045000
4472.63    5069.106000
4474.26    5100.952000
4475.90    5081.683000
4477.54    5337.312000
4479.17    5383.126000
4480.81    5511.130000
4482.44    5610.333000
4484.08    5531.075000
4485.72    5539.074000
4487.35    5526.935000
4488.99    5703.516000
4490.62    5558.740000
4492.26    5537.090000
4493.90    5643.996000
4495.53    5725.732000
4497.17    5478.384000
4498.81    5609.900000
4500.44    5587.965000
4502.08    5610.830000
4503.72    5587.499000
4505.35    5661.458000
4506.99    5724.848000
4508.62    5774.834000
4510.26    6190.811000
4511.90    5973.144000
4513.53    5842.745000
4515.17    5933.576000
4516.81    5757.788000
4518.44    6097.314000
4520.08    5925.146000
4521.71    5460.441000
4523.35    5496.376000
4524.99    5494.948000
4526.62    5482.191000
4528.26    5635.088000
4529.90    5521.046000
4531.53    5391.063000
4533.17    5722.089000
4534.80    5802.849000
4536.44    5863.858000
4538.08    6076.297000
4539.71    6040.333000
4541.35    6014.292000
4542.98    6237.857000
4544.62    6327.288000
4546.26    6328.751000
4547.89    6346.858000
4549.53    6534.487000
4551.17    6262.300000
4552.80    6228.152000
4554.44    6374.248000
4556.07    6362.896000
4557.71    6271.751000
4559.35    6142.207000
4560.98    6240.869000
4562.62    6260.780000
4564.26    6175.409000
4565.89    6422.094000
4567.53    6447.152000
4569.16    6575.889000
4570.80    6699.404000
4572.44    6843.312000
4574.07    6701.409000
4575.71    6926.044000
4577.35    6871.990000
4578.98    6884.268000
4580.62    6658.023000
4582.25    6888.073000
4583.89    6921.153000
4585.53    6581.319000
4587.16    6717.547000
4588.80    6708.612000
4590.43    6557.900000
4592.07    6442.754000
4593.71    6052.920000
4595.34    6038.266000
4596.98    5785.866000
4598.61    5968.020000
4600.25    5827.248000
4601.89    6084.303000
4603.52    5961.299000
4605.16    6098.179000
4606.80    6327.745000
4608.43    6368.592000
4610.07    6270.625000
4611.70    6170.160000
4613.34    6452.569000
4614.98    6357.280000
4616.61    6580.477000
4618.25    6297.734000
4619.89    6499.685000
4621.52    6672.396000
4623.16    6542.081000
4624.79    6612.995000
4626.43    6589.177000
4628.07    6852.520000
4629.70    6828.588000
4631.34    7025.223000
4632.98    7015.377000
4634.61    6996.170000
4636.25    7131.527000
4637.88    7120.722000
4639.52    6716.683000
4641.16    7054.170000
4642.79    6834.195000
4644.43    6907.649000
4646.06    6918.569000
4647.70    7090.900000
4649.34    6566.823000
4650.97    6835.562000
4652.61    6748.937000
4654.25    6447.530000
4655.88    6934.941000
4657.52    6637.217000
4659.15    7120.331000
4660.79    6719.275000
4662.43    7052.250000
4664.06    6906.683000
4665.70    6835.958000
4667.34    6870.508000
4668.97    6853.609000
4670.61    6913.835000
4672.24    6817.677000
4673.88    6718.676000
4675.52    6884.702000
4677.15    6990.076000
4678.79    7217.803000
4680.43    7193.602000
4682.06    7273.127000
4683.70    7111.875000
4685.33    7334.525000
4686.97    7318.250000
4688.61    7328.135000
4690.24    7434.875000
4691.88    7431.789000
4693.52    7424.000000
4695.15    7312.558000
4696.79    7269.039000
4698.42    7196.860000
4700.06    7339.467000
4701.70    7309.500000
4703.33    7152.970000
4704.97    6998.232000
4706.60    7123.876000
4708.24    7028.917000
4709.88    6872.181000
4711.51    7000.170000
4713.15    7053.401000
4714.79    6675.339000
4716.42    6888.262000
4718.06    6956.634000
4719.69    6688.933000
4721.33    6672.854000
4722.97    6740.401000
4724.60    6801.630000
4726.24    6999.169000
4727.88    7172.310000
4729.51    7010.269000
4731.15    7019.383000
4732.78    6806.634000
4734.42    6870.681000
4736.06    6755.390000
4737.69    6741.147000
4739.33    6883.548000
4740.97    6668.616000
4742.60    6783.035000
4744.24    6806.194000
4745.87    6917.356000
4747.51    6944.660000
4749.15    6821.225000
4750.78    6789.994000
4752.42    6873.780000
4754.06    6857.468000
4755.69    6764.312000
4757.33    6839.410000
4758.96    6921.085000
4760.60    6869.862000
4762.24    6982.166000
4763.87    6996.399000
4765.51    6799.784000
4767.15    6783.683000
4768.78    6724.220000
4770.42    6819.850000
4772.05    6783.320000
4773.69    6846.752000
4775.33    6816.792000
4776.96    6734.242000
4778.60    6550.675000
4780.23    6736.547000
4781.87    6937.356000
4783.51    6882.230000
4785.14    7031.012000
4786.78    7181.894000
4788.41    7242.000000
4790.05    7154.183000
4791.69    7345.096000
4793.32    7780.547000
4794.96    7502.426000
4796.60    7283.943000
4798.23    7476.257000
4799.87    7408.992000
4801.51    7208.096000
4803.14    7021.940000
4804.78    7239.105000
4806.41    7114.793000
4808.05    7128.312000
4809.69    7324.442000
4811.32    7404.723000
4812.96    7298.031000
4814.59    7363.154000
4816.23    7669.845000
4817.87    7828.321000
4819.50    7592.307000
4821.14    7735.590000
4822.77    7825.067000
4824.41    7620.823000
4826.05    7416.115000
4827.68    7449.830000
4829.32    7493.125000
4830.96    7410.847000
4832.59    7390.769000
4834.23    7255.545000
4835.86    7105.351000
4837.50    7251.910000
4839.14    7331.867000
4840.77    7278.569000
4842.41    7272.178000
4844.05    7452.121000
4845.68    7510.977000
4847.32    7429.593000
4848.95    7381.226000
4850.59    7548.151000
4852.23    7581.828000
4853.86    7240.370000
4855.50    7343.904000
4857.14    7420.913000
4858.77    7343.932000
4860.41    7391.570000
4862.04    7663.000000
4863.68    7707.800000
4865.32    7616.417000
4866.95    7599.014000
4868.59    7683.426000
4870.23    7839.051000
4871.86    7648.308000
4873.50    7750.964000
4875.13    7700.470000
4876.77    7781.991000
4878.41    7762.795000
4880.04    7641.217000
4881.68    7651.488000
4883.31    7644.697000
4884.95    7763.325000
4886.59    7832.095000
4888.22    7780.966000
4889.86    7652.070000
4891.50    7793.774000
4893.13    7902.681000
4894.77    8025.436000
4896.40    7867.817000
4898.04    7848.090000
4899.68    7827.489000
4901.31    7548.163000
4902.95    7459.300000
4904.59    7795.270000
4906.22    7800.327000
4907.86    7476.479000
4909.49    7465.042000
4911.13    7596.680000
4912.77    7499.359000
4914.40    7521.080000
4916.04    7687.910000
4917.68    7629.905000
4919.31    7476.391000
4920.95    7530.447000
4922.58    7711.608000
4924.22    7449.992000
4925.86    7349.845000
4927.49    7230.156000
4929.13    7023.773000
4930.77    7022.667000
4932.40    6923.889000
4934.04    6961.577000
4935.67    6786.094000
4937.31    6818.404000
4938.95    6733.560000
4940.58    6697.696000
4942.22    6822.877000
4943.85    6991.609000
4945.49    6830.213000
4947.13    7024.024000
4948.76    7239.345000
4950.40    7149.835000
4952.04    7219.512000
4953.67    7396.010000
4955.31    7538.697000
4956.94    7290.368000
4958.58    7309.967000
4960.22    7207.407000
4961.85    7152.069000
4963.49    7294.610000
4965.12    7424.571000
4966.76    7542.251000
4968.40    7983.920000
4970.03    7893.229000
4971.67    7485.347000
4973.31    7870.009000
4974.94    7946.565000
4976.58    8104.566000
4978.22    7868.735000
4979.85    8082.129000
4981.49    7719.007000
4983.12    7707.062000
4984.76    7666.485000
4986.40    7594.558000
4988.03    7508.394000
4989.67    7708.745000
4991.31    7539.045000
4992.94    7357.002000
4994.58    7276.241000
4996.21    7192.989000
4997.85    7543.437000
4999.49    7464.419000
5001.12    7610.769000
5002.76    7837.297000
5004.39    7802.610000
5006.03    7812.583000
5007.67    7763.175000
5009.30    7947.853000
5010.94    7949.368000
5012.57    7509.823000
5014.21    7608.818000
5015.85    7966.455000
5017.48    7823.168000
5019.12    8021.023000
5020.76    8293.505000
5022.39    8179.373000
5024.03    7950.567000
5025.66    8145.579000
5027.30    8084.648000
5028.94    8058.444000
5030.57    7822.844000
5032.21    7532.461000
5033.85    7618.169000
5035.48    7650.622000
5037.12    7625.528000
5038.75    7553.088000
5040.39    7578.705000
5042.03    7498.198000
5043.66    7646.970000
5045.30    7548.830000
5046.94    7623.420000
5048.57    7482.015000
5050.21    7617.160000
5051.84    7591.961000
5053.48    7473.604000
5055.12    7324.554000
5056.75    7164.196000
5058.39    7200.247000
5060.02    7268.849000
5061.66    7353.517000
5063.30    7309.253000
5064.93    7389.359000
5066.57    7323.920000
5068.21    7369.228000
5069.84    7489.287000
5071.48    7371.734000
5073.11    7452.476000
5074.75    7436.772000
5076.39    7182.930000
5078.02    7113.939000
5079.66    6912.273000
5081.30    7175.512000
5082.93    7106.959000
5084.57    7073.475000
5086.20    6941.785000
5087.84    7066.743000
5089.48    7020.320000
5091.11    7066.195000
5092.75    6857.404000
5094.39    6844.673000
5096.02    6997.843000
5097.66    6983.371000
5099.29    7001.999000
5100.93    7018.310000
5102.57    7278.580000
5104.20    7350.062000
5105.84    7438.912000
5107.48    7253.682000
5109.11    7234.701000
5110.75    7388.201000
5112.38    7216.995000
5114.02    7245.625000
5115.66    7311.573000
5117.29    7122.093000
5118.93    7135.998000
5120.56    7189.431000
5122.20    7212.273000
5123.84    7198.388000
5125.47    7223.450000
5127.11    7327.519000
5128.75    7468.792000
5130.38    7471.490000
5132.02    7461.348000
5133.65    7412.680000
5135.29    7587.696000
5136.93    7712.010000
5138.56    7534.863000
5140.20    7616.751000
5141.84    7462.555000
5143.47    7377.522000
5145.11    7472.738000
5146.74    7280.161000
5148.38    7280.899000
5150.02    7335.290000
5151.65    7251.672000
5153.29    7081.509000
5154.93    7117.692000
5156.56    7127.799000
5158.20    7083.488000
5159.83    6929.073000
5161.47    6888.611000
5163.11    7106.090000
5164.74    7277.336000
5166.38    7257.352000
5168.02    7476.081000
5169.65    7529.507000
5171.29    7378.476000
5172.92    7136.444000
5174.56    7302.932000
5176.20    7137.630000
5177.83    7047.854000
5179.47    7094.060000
5181.10    7112.314000
5182.74    7206.880000
5184.38    7080.168000
5186.01    7164.836000
5187.65    7328.345000
5189.29    7159.366000
5190.92    7491.656000
5192.56    7454.931000
5194.19    7295.639000
5195.83    7339.925000
5197.47    7385.823000
5199.10    7308.381000
5200.74    7342.681000
5202.38    7029.107000
5204.01    6863.522000
5205.65    6867.500000
5207.28    6975.483000
5208.92    7112.718000
5210.56    7036.786000
5212.19    7026.634000
5213.83    7171.609000
5215.47    7101.694000
5217.10    6956.368000
5218.74    7036.683000
5220.37    6983.124000
5222.01    7028.103000
5223.65    6591.217000
5225.28    6832.264000
5226.92    6621.900000
5228.56    6690.984000
5230.19    6925.718000
5231.83    7111.678000
5233.46    6918.472000
5235.10    6957.183000
5236.73    6638.072000
5238.37    6743.361000
5240.01    6693.263000
5241.64    6587.502000
5243.28    6239.504000
5244.92    5985.202000
5246.55    5642.315000
5248.19    5734.344000
5249.82    5519.850000
5251.46    5505.843000
5253.10    5766.300000
5254.73    5657.668000
5256.37    6016.871000
5258.01    5936.430000
5259.64    5870.824000
5261.28    5943.450000
5262.91    5942.591000
5264.55    6103.285000
5266.19    6174.321000
5267.82    6412.824000
5269.46    6577.500000
5271.10    6756.336000
5272.73    6836.350000
5274.37    6916.259000
5276.00    6952.252000
5277.64    7053.732000
5279.28    6955.704000
5280.91    6938.222000
5282.55    7142.376000
5284.19    6941.205000
5285.82    6774.717000
5287.46    6816.498000
5289.09    6987.758000
5290.73    6878.610000
5292.37    6956.808000
5294.00    7088.593000
5295.64    7314.116000
5297.27    7563.656000
5298.91    7711.872000
5300.55    7572.831000
5302.18    7349.427000
5303.82    7436.296000
5305.46    7404.984000
5307.09    7187.401000
5308.73    7347.104000
5310.36    7503.376000
5312.00    7582.371000
5313.64    7677.072000
5315.27    7537.388000
5316.91    7606.882000
5318.55    7952.146000
5320.18    7935.501000
5321.82    7879.229000
5323.45    7932.046000
5325.09    7767.806000
5326.73    7836.382000
5328.36    7773.742000
5330.00    7629.012000
5331.64    7607.020000
5333.27    7636.211000
5334.91    7793.581000
