#Wavelength     Flux
#[Angstrom]   [Counts]
3913.05     0.000000
3914.68     0.000000
3916.32     0.000000
3917.95     0.000000
3919.59     0.000000
3921.23     0.000000
3922.86     0.000000
3924.50     0.000000
3926.14     0.000000
3927.77     0.000000
3929.41     0.000000
3931.04     0.000000
3932.68     0.000000
3934.32     0.000000
3935.95     0.000000
3937.59     0.000000
3939.22     0.000000
3940.86     0.000000
3942.50     0.000000
3944.13     0.000000
3945.77     0.000000
3947.41     0.000000
3949.04     0.000000
3950.68     0.000000
3952.31     0.000000
3953.95     0.000000
3955.59     0.000000
3957.22    3732.606000
3958.86    1355.449000
3960.49    1452.934000
3962.13    1683.880000
3963.77    1680.889000
3965.40    1473.643000
3967.04    1436.497000
3968.68    1322.644000
3970.31    1384.275000
3971.95    1547.045000
3973.59    1558.254000
3975.22    1500.884000
3976.86    1202.436000
3978.49    1135.802000
3980.13    989.353400
3981.77    1095.753000
3983.40    997.997900
3985.04    955.626100
3986.67    946.367700
3988.31    1109.113000
3989.95    1409.492000
3991.58    1367.882000
3993.22    1123.447000
3994.86    1516.026000
3996.49    1366.289000
3998.13    1230.497000
3999.76    1239.106000
4001.40    1368.306000
4003.04    1094.139000
4004.67    1672.034000
4006.31    1631.870000
4007.95    1417.896000
4009.58    1471.708000
4011.22    1124.811000
4012.85    1226.461000
4014.49    910.338300
4016.13    907.743300
4017.76    1046.378000
4019.40    835.446800
4021.03    837.079800
4022.67    1027.731000
4024.31    971.835400
4025.94    1123.140000
4027.58    1330.377000
4029.22    1114.817000
4030.85    1654.814000
4032.49    1548.910000
4034.12    1563.844000
4035.76    1598.623000
4037.40    1402.733000
4039.03    1384.135000
4040.67    1569.594000
4042.30    1638.919000
4043.94    1574.465000
4045.58    1687.714000
4047.21    1799.866000
4048.85    1899.567000
4050.49    1298.428000
4052.12    1883.601000
4053.76    1509.138000
4055.39    1788.434000
4057.03    1604.179000
4058.67    1778.414000
4060.30    1939.182000
4061.94    1738.829000
4063.58    1841.478000
4065.21    1808.255000
4066.85    2216.488000
4068.49    1843.345000
4070.12    1937.401000
4071.76    1928.026000
4073.39    1953.810000
4075.03    1611.916000
4076.67    1737.003000
4078.30    1950.846000
4079.94    2199.187000
4081.57    1796.476000
4083.21    1874.602000
4084.85    1700.140000
4086.48    1706.909000
4088.12    1742.896000
4089.76    2141.471000
4091.39    2093.762000
4093.03    1811.797000
4094.66    1666.048000
4096.30    1451.140000
4097.94    1665.274000
4099.57    2141.425000
4101.21    1705.757000
4102.85    1422.835000
4104.48    1932.470000
4106.12    1917.238000
4107.75    2185.901000
4109.39    1965.136000
4111.03    1842.694000
4112.66    1797.940000
4114.30    1634.124000
4115.94    1940.795000
4117.57    1932.935000
4119.21    1567.623000
4120.84    1588.268000
4122.48    1761.229000
4124.12    1541.906000
4125.75    1938.845000
4127.39    1932.014000
4129.02    2079.090000
4130.66    1655.817000
4132.30    2651.748000
4133.93    1564.826000
4135.57    1722.126000
4137.20    2208.914000
4138.84    1919.169000
4140.48    1729.383000
4142.11    2032.510000
4143.75    1948.084000
4145.39    1799.780000
4147.02    1827.305000
4148.66    1859.713000
4150.30    1882.014000
4151.93    1788.259000
4153.57    1623.131000
4155.20    1248.554000
4156.84    1672.798000
4158.48    1538.968000
4160.11    1814.105000
4161.75    1815.182000
4163.39    1801.858000
4165.02    1474.614000
4166.66    1787.842000
4168.29    1928.466000
4169.93    2009.305000
4171.56    1785.507000
4173.20    1990.835000
4174.84    1985.855000
4176.47    1968.110000
4178.11    1888.907000
4179.75    1630.579000
4181.38    1831.046000
4183.02    1823.684000
4184.65    1918.496000
4186.29    1941.052000
4187.93    1991.349000
4189.56    1870.862000
4191.20    1878.830000
4192.84    1576.085000
4194.47    1704.720000
4196.11    1992.457000
4197.74    1804.585000
4199.38    2040.365000
4201.02    2087.365000
4202.65    1966.359000
4204.29    1899.271000
4205.93    1831.665000
4207.56    1763.543000
4209.20    1804.257000
4210.83    1832.389000
4212.47    2008.494000
4214.11    1939.140000
4215.74    2126.535000
4217.38    1923.153000
4219.02    1819.061000
4220.65    1987.073000
4222.29    2068.055000
4223.92    1995.185000
4225.56    1739.687000
4227.20    1814.425000
4228.83    1655.636000
4230.47    1846.983000
4232.10    1772.832000
4233.74    1617.121000
4235.38    1724.008000
4237.01    1875.653000
4238.65    1944.698000
4240.29    1933.119000
4241.92    1860.207000
4243.56    1875.143000
4245.19    2070.266000
4246.83    1821.729000
4248.47    1737.699000
4250.10    1847.182000
4251.74    1807.272000
4253.38    2041.173000
4255.01    1831.207000
4256.65    1440.055000
4258.28    1730.786000
4259.92    2005.252000
4261.56    2011.911000
4263.19    2074.021000
4264.83    2205.991000
4266.47    1820.782000
4268.10    1939.550000
4269.74    2102.710000
4271.37    1948.977000
4273.01    1888.455000
4274.65    2044.338000
4276.28    1953.575000
4277.92    1734.881000
4279.56    1824.861000
4281.19    2047.212000
4282.83    1823.790000
4284.46    1737.780000
4286.10    1619.103000
4287.74    1782.722000
4289.37    1904.949000
4291.01    1906.886000
4292.65    1933.825000
4294.28    1993.351000
4295.92    2004.627000
4297.55    2022.649000
4299.19    1820.950000
4300.83    1654.370000
4302.46    1764.546000
4304.10    1891.059000
4305.73    1927.453000
4307.37    1933.267000
4309.01    1978.813000
4310.64    1753.260000
4312.28    1818.486000
4313.92    2056.361000
4315.55    1990.745000
4317.19    1975.221000
4318.82    1987.559000
4320.46    2047.752000
4322.10    2222.329000
4323.73    1962.719000
4325.37    1688.359000
4327.01    1778.226000
4328.64    1890.743000
4330.28    1852.651000
4331.91    1682.695000
4333.55    1790.035000
4335.19    1971.713000
4336.82    1736.586000
4338.46    1648.436000
4340.10    1770.335000
4341.73    1842.557000
4343.37    1802.127000
4345.00    1829.855000
4346.64    1853.395000
4348.28    1844.741000
4349.91    1938.118000
4351.55    2053.937000
4353.19    1876.893000
4354.82    1677.326000
4356.46    1604.641000
4358.09    1857.553000
4359.73    1923.516000
4361.36    1723.747000
4363.00    1764.260000
4364.64    1576.132000
4366.27    1610.325000
4367.91    1994.406000
4369.55    2152.121000
4371.18    1936.598000
4372.82    1982.201000
4374.45    2048.831000
4376.09    2109.340000
4377.73    2259.392000
4379.36    2009.293000
4381.00    2064.798000
4382.64    2047.207000
4384.27    2011.079000
4385.91    2189.363000
4387.55    2195.045000
4389.18    2084.351000
4390.82    1806.391000
4392.45    1829.171000
4394.09    1933.904000
4395.73    1931.750000
4397.36    1735.074000
4399.00    1819.133000
4400.63    2047.666000
4402.27    1923.831000
4403.91    1887.916000
4405.54    1925.189000
4407.18    1840.653000
4408.81    1950.951000
4410.45    2040.299000
4412.09    1936.326000
4413.72    2083.500000
4415.36    2069.438000
4417.00    1939.204000
4418.63    2060.240000
4420.27    2316.461000
4421.90    2239.628000
4423.54    2218.763000
4425.18    2057.952000
4426.81    1997.753000
4428.45    1932.563000
4430.09    2121.557000
4431.72    2272.108000
4433.36    2186.599000
4434.99    2175.982000
4436.63    1968.759000
4438.27    1970.731000
4439.90    1788.511000
4441.54    1867.017000
4443.18    2033.642000
4444.81    1876.883000
4446.45    1884.521000
4448.08    1974.356000
4449.72    2085.408000
4451.36    2157.042000
4452.99    2041.257000
4454.63    2126.764000
4456.27    2254.783000
4457.90    2224.867000
4459.54    2096.246000
4461.17    1784.854000
4462.81    2091.681000
4464.45    2132.536000
4466.08    1988.937000
4467.72    2226.672000
4469.35    2296.660000
4470.99    2072.047000
4472.63    2061.239000
4474.26    2028.946000
4475.90    2125.226000
4477.54    2104.745000
4479.17    2332.753000
4480.81    2315.053000
4482.44    2077.777000
4484.08    2308.740000
4485.72    2720.335000
4487.35    2050.708000
4488.99    2116.636000
4490.62    2329.452000
4492.26    2241.292000
4493.90    2308.448000
4495.53    2318.378000
4497.17    2281.465000
4498.81    2208.414000
4500.44    2138.262000
4502.08    2438.496000
4503.72    2345.879000
4505.35    2100.143000
4506.99    2149.504000
4508.62    2040.099000
4510.26    2353.148000
4511.90    2319.702000
4513.53    2221.143000
4515.17    2165.318000
4516.81    2200.541000
4518.44    2102.826000
4520.08    2070.372000
4521.71    2282.316000
4523.35    2214.067000
4524.99    2087.809000
4526.62    2222.494000
4528.26    2426.763000
4529.90    2448.516000
4531.53    2418.165000
4533.17    2270.846000
4534.80    2330.396000
4536.44    2448.496000
4538.08    2360.648000
4539.71    2424.294000
4541.35    2457.490000
4542.98    2417.906000
4544.62    2288.642000
4546.26    2219.875000
4547.89    2117.179000
4549.53    2304.378000
4551.17    2403.618000
4552.80    2352.360000
4554.44    2448.931000
4556.07    2362.440000
4557.71    2371.503000
4559.35    2426.222000
4560.98    2416.768000
4562.62    2391.606000
4564.26    2533.318000
4565.89    2630.556000
4567.53    2627.874000
4569.16    2379.852000
4570.80    2147.916000
4572.44    2525.975000
4574.07    2689.609000
4575.71    2647.003000
4577.35    2560.422000
4578.98    2420.565000
4580.62    2419.712000
4582.25    2352.867000
4583.89    2405.753000
4585.53    2382.076000
4587.16    2263.948000
4588.80    2498.112000
4590.43    2548.701000
4592.07    2450.089000
4593.71    2270.368000
4595.34    2350.661000
4596.98    2507.009000
4598.61    2318.121000
4600.25    2429.214000
4601.89    2375.666000
4603.52    2473.293000
4605.16    2504.616000
4606.80    2280.690000
4608.43    2220.408000
4610.07    2343.012000
4611.70    2364.289000
4613.34    2230.720000
4614.98    2340.507000
4616.61    2370.260000
4618.25    2637.892000
4619.89    2522.565000
4621.52    2346.367000
4623.16    2198.867000
4624.79    2362.035000
4626.43    2387.999000
4628.07    2428.715000
4629.70    2614.918000
4631.34    2555.318000
4632.98    2616.567000
4634.61    2661.705000
4636.25    2527.556000
4637.88    2429.370000
4639.52    2546.975000
4641.16    2372.086000
4642.79    2279.794000
4644.43    2286.782000
4646.06    2661.102000
4647.70    2639.123000
4649.34    2592.881000
4650.97    2480.048000
4652.61    2387.508000
4654.25    2622.161000
4655.88    2607.778000
4657.52    2477.080000
4659.15    2265.187000
4660.79    2555.604000
4662.43    2603.100000
4664.06    2615.942000
4665.70    2603.980000
4667.34    2604.078000
4668.97    2465.437000
4670.61    2584.594000
4672.24    2506.399000
4673.88    2474.272000
4675.52    2583.826000
4677.15    2518.690000
4678.79    2511.954000
4680.43    2601.666000
4682.06    2471.279000
4683.70    2592.334000
4685.33    2450.633000
4686.97    2572.137000
4688.61    2673.171000
4690.24    2593.703000
4691.88    2684.365000
4693.52    2513.850000
4695.15    2741.513000
4696.79    2616.586000
4698.42    2499.205000
4700.06    2469.933000
4701.70    2530.555000
4703.33    2408.543000
4704.97    2329.799000
4706.60    2463.048000
4708.24    2497.154000
4709.88    2323.116000
4711.51    2434.340000
4713.15    2378.108000
4714.79    2614.418000
4716.42    2637.026000
4718.06    2633.170000
4719.69    2500.092000
4721.33    2449.479000
4722.97    2557.352000
4724.60    2584.070000
4726.24    2345.628000
4727.88    2417.350000
4729.51    2317.893000
4731.15    2280.746000
4732.78    2402.599000
4734.42    2307.741000
4736.06    2485.178000
4737.69    2557.697000
4739.33    2489.058000
4740.97    2218.886000
4742.60    2414.763000
4744.24    2548.686000
4745.87    2284.646000
4747.51    2534.088000
4749.15    2505.313000
4750.78    2511.215000
4752.42    2436.510000
4754.06    2352.622000
4755.69    2503.186000
4757.33    2408.515000
4758.96    2222.367000
4760.60    2439.987000
4762.24    2346.333000
4763.87    2336.845000
4765.51    2284.916000
4767.15    2149.454000
4768.78    2254.240000
4770.42    2375.082000
4772.05    2386.898000
4773.69    2412.633000
4775.33    2523.833000
4776.96    2508.620000
4778.60    2370.097000
4780.23    2397.226000
4781.87    2425.266000
4783.51    2450.708000
4785.14    2562.927000
4786.78    2506.095000
4788.41    2314.251000
4790.05    2122.275000
4791.69    2350.054000
4793.32    2530.917000
4794.96    2395.989000
4796.60    2432.885000
4798.23    2429.123000
4799.87    2457.569000
4801.51    2499.465000
4803.14    2387.599000
4804.78    2456.011000
4806.41    2490.444000
4808.05    2536.310000
4809.69    2382.816000
4811.32    2510.814000
4812.96    2526.519000
4814.59    2413.894000
4816.23    2638.191000
4817.87    2309.058000
4819.50    2368.959000
4821.14    2398.302000
4822.77    2448.110000
4824.41    2354.145000
4826.05    2311.044000
4827.68    2504.751000
4829.32    2458.737000
4830.96    2316.072000
4832.59    2281.191000
4834.23    2328.236000
4835.86    2289.724000
4837.50    2515.574000
4839.14    2687.245000
4840.77    2529.689000
4842.41    2678.316000
4844.05    2599.521000
4845.68    2439.173000
4847.32    2444.626000
4848.95    2260.469000
4850.59    2317.958000
4852.23    2339.626000
4853.86    2672.857000
4855.50    2581.693000
4857.14    2366.653000
4858.77    2470.780000
4860.41    2378.080000
4862.04    2453.291000
4863.68    2481.046000
4865.32    2513.790000
4866.95    2556.608000
4868.59    2497.469000
4870.23    2390.736000
4871.86    2502.442000
4873.50    2433.193000
4875.13    2504.480000
4876.77    2401.272000
4878.41    2376.185000
4880.04    2562.176000
4881.68    2574.672000
4883.31    2443.893000
4884.95    2554.297000
4886.59    2609.008000
4888.22    2520.634000
4889.86    2465.824000
4891.50    2518.217000
4893.13    2618.470000
4894.77    2351.579000
4896.40    2498.824000
4898.04    2572.659000
4899.68    2412.465000
4901.31    2408.901000
4902.95    2177.787000
4904.59    2334.130000
4906.22    2331.822000
4907.86    2157.375000
4909.49    2171.948000
4911.13    2313.762000
4912.77    2269.272000
4914.40    2267.384000
4916.04    2349.114000
4917.68    2178.413000
4919.31    1980.711000
4920.95    2170.084000
4922.58    2224.544000
4924.22    2357.187000
4925.86    2258.096000
4927.49    2061.875000
4929.13    2109.616000
4930.77    2185.751000
4932.40    2429.289000
4934.04    2261.770000
4935.67    2217.080000
4937.31    2127.633000
4938.95    2303.390000
4940.58    2354.650000
4942.22    2493.976000
4943.85    2243.022000
4945.49    2344.363000
4947.13    2303.938000
4948.76    2442.453000
4950.40    2479.252000
4952.04    2265.741000
4953.67    2337.822000
4955.31    2326.013000
4956.94    2361.743000
4958.58    2349.239000
4960.22    2429.289000
4961.85    2486.937000
4963.49    2350.981000
4965.12    2464.798000
4966.76    2580.288000
4968.40    2506.001000
4970.03    2341.318000
4971.67    2480.490000
4973.31    2420.273000
4974.94    2445.667000
4976.58    2471.594000
4978.22    2355.513000
4979.85    2390.610000
4981.49    2202.163000
4983.12    2053.648000
4984.76    2211.508000
4986.40    2296.342000
4988.03    2316.188000
4989.67    2437.897000
4991.31    2336.779000
4992.94    2376.830000
4994.58    2581.190000
4996.21    2471.877000
4997.85    2445.219000
4999.49    2171.976000
5001.12    2329.807000
5002.76    2440.040000
5004.39    2234.249000
5006.03    2476.524000
5007.67    2538.137000
5009.30    2377.396000
5010.94    2440.008000
5012.57    2462.923000
5014.21    2430.755000
5015.85    2566.389000
5017.48    2476.409000
5019.12    2401.634000
5020.76    2239.240000
5022.39    2309.926000
5024.03    2261.615000
5025.66    2184.257000
5027.30    2324.046000
5028.94    2436.877000
5030.57    2244.934000
5032.21    2359.303000
5033.85    2333.801000
5035.48    2409.294000
5037.12    2433.058000
5038.75    2363.576000
5040.39    2364.852000
5042.03    2277.771000
5043.66    2161.041000
5045.30    2188.358000
5046.94    2259.471000
5048.57    2218.651000
5050.21    2286.497000
5051.84    2373.859000
5053.48    2294.517000
5055.12    2378.392000
5056.75    2110.062000
5058.39    2100.027000
5060.02    2353.645000
5061.66    2327.285000
5063.30    2226.148000
5064.93    2277.482000
5066.57    2271.476000
5068.21    2245.734000
5069.84    2424.903000
5071.48    2431.565000
5073.11    2342.673000
5074.75    2378.040000
5076.39    2346.576000
5078.02    2209.024000
5079.66    2203.656000
5081.30    2216.514000
5082.93    2051.568000
5084.57    2197.103000
5086.20    2384.865000
5087.84    2185.902000
5089.48    2085.921000
5091.11    2249.164000
5092.75    2271.778000
5094.39    2241.507000
5096.02    2164.731000
5097.66    2251.938000
5099.29    2227.302000
5100.93    2301.456000
5102.57    2250.936000
5104.20    2371.758000
5105.84    2175.420000
5107.48    2244.861000
5109.11    2362.416000
5110.75    2263.052000
5112.38    2289.470000
5114.02    2379.397000
5115.66    2271.488000
5117.29    2338.565000
5118.93    2416.563000
5120.56    2340.606000
5122.20    2303.346000
5123.84    2354.182000
5125.47    2401.485000
5127.11    2428.303000
5128.75    2292.539000
5130.38    2373.043000
5132.02    2311.986000
5133.65    2213.136000
5135.29    2251.089000
5136.93    2261.165000
5138.56    2370.546000
5140.20    2463.253000
5141.84    2172.760000
5143.47    2124.954000
5145.11    2118.623000
5146.74    2246.367000
5148.38    2309.122000
5150.02    2109.754000
5151.65    2136.056000
5153.29    2010.051000
5154.93    2196.708000
5156.56    2347.006000
5158.20    2189.468000
5159.83    2423.403000
5161.47    2280.994000
5163.11    2357.998000
5164.74    2287.036000
5166.38    2340.145000
5168.02    2110.423000
5169.65    2244.650000
5171.29    2356.588000
5172.92    2337.384000
5174.56    2184.437000
5176.20    1999.965000
5177.83    2158.086000
5179.47    2198.877000
5181.10    2471.079000
5182.74    2166.207000
5184.38    2212.523000
5186.01    2073.209000
5187.65    2074.920000
5189.29    2063.010000
5190.92    2256.581000
5192.56    2332.743000
5194.19    2159.211000
5195.83    2243.391000
5197.47    2108.612000
5199.10    2186.584000
5200.74    2311.749000
5202.38    2050.730000
5204.01    2379.344000
5205.65    2176.889000
5207.28    1991.875000
5208.92    1980.388000
5210.56    2189.692000
5212.19    2180.258000
5213.83    2148.766000
5215.47    2192.885000
5217.10    2184.873000
5218.74    2059.925000
5220.37    2080.481000
5222.01    2122.356000
5223.65    2352.564000
5225.28    2196.373000
5226.92    2216.063000
5228.56    2153.234000
5230.19    2136.723000
5231.83    2039.459000
5233.46    1902.974000
5235.10    1820.474000
5236.73    1863.390000
5238.37    1817.558000
5240.01    1905.660000
5241.64    2057.408000
5243.28    2039.563000
5244.92    2166.454000
5246.55    2204.194000
5248.19    1991.203000
5249.82    1855.188000
5251.46    1899.165000
5253.10    2098.934000
5254.73    1944.945000
5256.37    2147.376000
5258.01    2277.562000
5259.64    2111.760000
5261.28    2203.888000
5262.91    2210.763000
5264.55    2190.649000
5266.19    2247.532000
5267.82    2302.960000
5269.46    2316.664000
5271.10    2187.079000
5272.73    2005.121000
5274.37    1973.900000
5276.00    2116.988000
5277.64    1979.171000
5279.28    2036.420000
5280.91    2129.777000
5282.55    2192.124000
5284.19    2222.390000
5285.82    2248.079000
5287.46    2424.304000
5289.09    2375.158000
5290.73    2232.581000
5292.37    2222.365000
5294.00    2096.616000
5295.64    2099.993000
5297.27    2154.138000
5298.91    2267.864000
5300.55    2274.983000
5302.18    2078.271000
5303.82    2338.808000
5305.46    2440.692000
5307.09    2369.750000
5308.73    2401.575000
5310.36    2437.783000
5312.00    2397.106000
5313.64    2303.104000
5315.27    2165.475000
5316.91    2227.781000
5318.55    2049.961000
5320.18    2278.384000
5321.82    2140.899000
5323.45    2288.574000
5325.09    2279.129000
5326.73    2328.052000
5328.36    2260.537000
5330.00    2375.311000
5331.64    2077.227000
5333.27    2180.885000
5334.91    1995.552000
