#Wavelength     Flux    Sky Spectrum 
#[Angstrom]   [Counts]     [Counts]
4579.10     6.354489     5.073019
4580.31     6.973071     5.036057
4581.53     7.515920     3.723599
4582.74     4.927373     6.186598
4583.96     4.985347     7.567783
4585.17     9.018354     4.975310
4586.38     4.301623     8.480356
4587.60     4.555939     6.322278
4588.81     6.688117     3.103876
4590.03     6.796455     5.989421
4591.24    20.003508     3.030391
4592.46    20.511040     2.360685
4593.67     9.988952     4.507963
4594.89     5.994325     5.004415
4596.10     7.899351     5.266119
4597.32    11.274078     3.622946
4598.53    11.400331     3.563651
4599.74     6.543766     6.112841
4600.96     2.208493     6.172297
4602.17    10.651414     5.733620
4603.39    11.426270     6.504527
4604.60     5.339911     5.455637
4605.82    13.673401     1.137823
4607.03     7.403609     3.757634
4608.25     9.120893     4.005141
4609.46    19.050945     2.234167
4610.68    14.399242     4.972174
4611.89     7.911582     3.118796
4613.10     7.833483     5.565165
4614.32    10.931183     7.766480
4615.53    10.839375     4.908887
4616.75     8.645543     5.819219
4617.96    13.367661     5.151235
4619.18    13.084317     3.046387
4620.39     7.436542     3.462477
4621.61     8.007458     6.804509
4622.82     5.853944     7.595315
4624.04     5.103629     5.082016
4625.25    10.937727     2.133469
4626.46    14.637179     2.179816
4627.68     5.688616     4.872468
4628.89    10.100432     3.216968
4630.11    14.685309     1.817755
4631.32     7.461652     3.519641
4632.54     0.991233     4.991935
4633.75     7.923984     5.036569
4634.97    11.440559     5.103579
4636.18    11.145384     4.636948
4637.40    10.530072     5.539358
4638.61     8.739595     8.122776
4639.82    15.185732     3.233401
4641.04    11.693841     3.387020
4642.25     6.879107     6.661572
4643.47    11.465022     5.857904
4644.68    12.110088     5.091960
4645.90    11.289013     4.300298
4647.11    10.573042     3.706269
4648.33     9.567787     4.543354
4649.54     7.792307     6.061137
4650.76     7.389152     5.288912
4651.97    14.011955     3.376843
4653.18    15.007812     3.435907
4654.40     9.104228     6.021525
4655.61    10.833153     6.794823
4656.83    22.527794     2.471310
4658.04    15.110768     2.599080
4659.26     7.246798     6.085628
4660.47    10.828764     6.398869
4661.69    16.449398     3.928895
4662.90    16.931084     5.611974
4664.12     7.595453     7.642472
4665.33    10.376171     7.959404
4666.54    18.401543     5.985836
4667.76    15.449911     2.606456
4668.97    12.163548     1.675471
4670.19    13.117007     6.305619
4671.40    19.614969     4.750354
4672.62    15.652794     4.270516
4673.83     2.792351     7.939764
4675.05     4.609644     4.132631
4676.26     9.988008     5.926102
4677.47    11.774011     8.190683
4678.69    12.640402     7.303870
4679.90    12.525825     5.765487
4681.12    11.992898     5.001944
4682.33    20.025707     3.278181
4683.55    18.070774     2.903149
4684.76    13.186384     2.963279
4685.98     9.000887     5.271106
4687.19     4.033358     7.865143
4688.41     9.970678     3.308980
4689.62    13.686157     5.465124
4690.83     9.790947     7.665849
4692.05     6.699711     6.527489
4693.26     8.130661     5.984352
4694.48     7.103179     6.017727
4695.69     7.097630     5.234556
4696.91    17.746227     4.750685
4698.12    14.502978     5.580127
4699.34     4.885470     5.737458
4700.55    13.357987     3.912433
4701.77    12.734896     3.744927
4702.98     8.684422     6.165961
4704.19     8.658440     7.360281
4705.41    13.125595     6.683455
4706.62    17.456116     5.841172
4707.84    17.092485     5.024581
4709.05    13.350321     4.825556
4710.27     8.509625     5.876809
4711.48    13.536246     5.134762
4712.70    20.895124     1.968731
4713.91    16.285112     1.225911
4715.13    10.943777     4.855501
4716.34    14.581726     3.306297
4717.55     6.637258     5.043523
4718.77     9.914930     7.179424
4719.98    22.274990     5.789795
4721.20    13.886676     7.089929
4722.41    16.869499     9.407132
4723.63    12.721875     3.709174
4724.84    21.024956     3.337131
4726.06    23.934761     3.866354
4727.27    10.995656     1.410756
4728.49    13.966202     8.810464
4729.70    11.678495    13.110716
4730.91    17.609695    10.382028
4732.13    10.817739     8.798994
4733.34     6.583085     6.108626
4734.56    22.496128     0.730757
4735.77    19.825418     3.666090
4736.99     5.759194     7.745035
4738.20     8.278358     6.383283
4739.42    18.624615     4.547317
4740.63    20.642529     5.247794
4741.85    13.874755     6.127643
4743.06     5.925451     7.018528
4744.27    13.422876     6.086454
4745.49    11.741250     6.990305
4746.70    10.321672     8.599175
4747.92    11.984541     9.122892
4749.13     7.071571     7.663001
4750.35    14.182121     3.201534
4751.56    16.357941     4.475082
4752.78    10.907722     4.109283
4753.99    16.040737     2.722339
4755.21    24.233402     1.069801
4756.42    16.360516     0.389333
4757.63    12.646218     9.300036
4758.85    17.488037     8.598014
4760.06     9.531713     4.946200
4761.28    10.328336     3.220214
4762.49    22.533773     3.523901
4763.71    17.394382     7.281500
4764.92     9.611768     9.988763
4766.14     9.049992     8.019027
4767.35    16.490910     5.993206
4768.57    11.652678     9.350723
4769.78     5.039605     9.640594
4770.99    14.060247     4.057980
4772.21     5.830538    10.483788
4773.42     8.566351     8.557110
4774.64    23.025244     6.204286
4775.85    18.612217     7.906245
4777.07     8.400010     9.199170
4778.28    19.511051     7.722593
4779.50    17.563341     4.046885
4780.71    15.228043     6.935178
4781.92    14.658513     7.950983
4783.14    19.260590     6.448809
4784.35    22.538977     5.791114
4785.57    14.077650     7.424321
4786.78     7.684343    12.877125
4788.00    16.797007     8.917390
4789.21    17.688761     4.880172
4790.43    20.788025     5.952968
4791.64    25.138033     6.825992
4792.86    17.680428     6.103996
4794.07    19.091581     8.782443
4795.28    14.488426     9.355803
4796.50    18.109135     7.768666
4797.71    20.486076     6.538911
4798.93    17.922382     5.601799
4800.14    17.500368     5.104546
4801.36    11.210188     6.906053
4802.57    13.694777     7.024469
4803.79    16.879896     7.314418
4805.00    20.000553     5.675394
4806.22    19.786497     6.036937
4807.43    14.617353     8.893355
4808.64    14.952142     5.138296
4809.86    14.437469     6.209229
4811.07    13.327267     8.637318
4812.29    19.747408     8.769881
4813.50    18.732393     7.524505
4814.72     8.877878     4.136532
4815.93    16.760750     0.846893
4817.15    15.953952     9.640638
4818.36    14.238145     8.661410
4819.58    20.851177     4.669695
4820.79    29.620640     5.260639
4822.00    28.844994     6.282298
4823.22    21.051624     7.980775
4824.43    23.801018     7.468519
4825.65    20.144798     5.093616
4826.86    22.152992     6.698701
4828.08    25.713661     7.172490
4829.29    19.945030     3.627356
4830.51    17.996092     3.997847
4831.72    19.541353     5.202489
4832.94    14.550762    10.575809
4834.15    26.538212     6.968229
4835.36    27.926987     3.379071
4836.58    12.376536     7.305851
4837.79    23.127089     4.959726
4839.01    23.309826     4.353565
4840.22    16.433327     9.509664
4841.44    24.655815     6.287021
4842.65    33.084629     3.770267
4843.87    29.401909     6.827465
4845.08    26.832943     2.951146
4846.30    17.482018     5.252611
4847.51    12.545077     8.736182
4848.72    16.149738     7.895061
4849.94    22.502199     7.427743
4851.15    21.605564     9.190710
4852.37    16.042532     7.902565
4853.58    24.416479     4.611264
4854.80    29.951824     1.626754
4856.01    23.918947     5.367263
4857.23    19.709332     7.960668
4858.44    24.243479     5.727748
4859.66    25.876900     7.116030
4860.87    21.253107     9.700519
4862.08    23.007175    10.504976
4863.30    19.232874     7.994093
4864.51    21.891623     4.832155
4865.73    30.529263     5.857378
4866.94    24.675289     8.989975
4868.16    21.091192     5.521167
4869.37    22.763279     4.458036
4870.59    30.777988     6.278387
4871.80    30.419441     7.020639
4873.02    21.532433     7.293123
4874.23    19.952963     9.054015
4875.44    20.193556     8.446615
4876.66    27.769283     5.094618
4877.87    20.770641     7.777403
4879.09    16.096214     9.575274
4880.30    22.386509     6.634345
4881.52    18.921041    10.318536
4882.73    19.889887    18.064289
4883.95    17.575310    10.522051
4885.16    10.194715     9.928581
4886.37    20.268145     9.793718
4887.59    33.735432     5.519159
4888.80    20.809973    12.053706
4890.02    23.184618     8.558845
4891.23    23.322983     9.235319
4892.45    20.914555     9.019889
4893.66    24.147341     5.968041
4894.88    26.561705     4.872821
4896.09    25.021809     5.003265
4897.31    34.974556     6.020798
4898.52    24.132999     5.320035
4899.73    23.982376     9.174150
4900.95    28.937925     9.355621
4902.16    20.055765     3.616990
4903.38    22.827740     5.937046
4904.59    28.898949     7.387726
4905.81    24.856857    11.334859
4907.02    24.335215     9.803419
4908.24    24.584600     7.175735
4909.45    18.613634    10.273270
4910.67    21.642952    10.027963
4911.88    27.638123    10.110631
4913.09    32.112324     8.844336
4914.31    39.359062     7.576478
4915.52    36.003437     8.534315
4916.74    22.747372     8.755033
4917.95    31.983585     4.408801
4919.17    33.746937     3.061650
4920.38    22.197910     7.815914
4921.60    19.247192     9.905607
4922.81    22.454523     9.475739
4924.03    20.341383    11.995537
4925.24    33.543804     8.661271
4926.45    33.395157     6.321847
4927.67    24.340504    10.030511
4928.88    20.442877    11.341558
4930.10    24.216368     7.404725
4931.31    30.961788     6.010505
4932.53    34.902603     4.615347
4933.74    33.526581     8.773070
4934.96    33.845390     8.459003
4936.17    32.512894     6.075724
4937.39    31.990009     8.051401
4938.60    38.585110     7.802563
4939.81    20.267265    12.974974
4941.03    29.190281    13.102576
4942.24    33.185917    12.433040
4943.46    17.606855    12.192965
4944.67    27.320604     6.690493
4945.89    46.892029     5.345744
4947.10    30.611012    12.282047
4948.32    26.087893    12.478230
4949.53    39.445152     7.371534
4950.75    36.815483     7.425623
4951.96    22.239292    10.915741
4953.17    23.369888    11.809943
4954.39    34.877407     6.767102
4955.60    29.768366     9.110354
4956.82    18.715372    12.341762
4958.03    22.248667     8.039877
4959.25    22.691031    13.455874
4960.46    28.871685    13.363220
4961.68    36.140991     9.871220
4962.89    24.429735    11.860970
4964.11    11.397864    13.191856
4965.32    25.875038     7.991046
4966.53    25.474007    14.198359
4967.75    20.619385    11.469140
4968.96    17.283216     9.458637
4970.18    24.609535    10.250456
4971.39    37.126030     5.776997
4972.61    28.747581     6.726015
4973.82    30.369545     8.339524
4975.04    27.360296    10.718715
4976.25    32.629471    12.278761
4977.47    35.893177    11.951457
4978.68     9.410345    11.081421
4979.89    16.022678     8.166058
4981.11    13.366941    10.115259
4982.32    23.056927    13.046973
4983.54    36.271942    14.631343
4984.75    22.740877    14.792789
4985.97    29.955673     9.302679
4987.18    28.251223    12.244280
4988.40    29.978045    13.805498
4989.61    29.126022    11.387613
4990.82    19.720003    12.336867
4992.04    29.431099    13.340719
4993.25    43.696301     6.526675
4994.47    34.893806     6.316959
4995.68    29.367109    10.128667
4996.90    37.512157    11.388348
4998.11    34.026440    13.005949
4999.33    35.817822    10.750525
5000.54    26.996693     8.591959
5001.76    27.956144     7.489161
5002.97    38.376808     8.870576
5004.18    36.964699    12.032793
5005.40    36.293720    10.377804
5006.61    25.005619     9.765903
5007.83    25.522587    10.098471
5009.04    34.693138     9.948514
5010.26    31.335758    10.030683
5011.47    25.877733    10.806726
5012.69    33.834583    12.108979
5013.90    50.574581    10.548805
5015.12    54.348511     8.758403
5016.33    43.972965    10.344483
5017.54    41.298717    12.040041
5018.76    36.226986    10.237522
5019.97    35.962547    11.194949
5021.19    43.990597     8.567619
5022.40    44.135593     4.125672
5023.62    27.668724     9.696152
5024.83    27.182436    11.599857
5026.05    31.933422    14.143751
5027.26    36.022945    13.850286
5028.48    32.744019     9.166261
5029.69    26.548965     7.036484
5030.90    51.653664     6.290867
5032.12    42.657085     5.212696
5033.33    27.333658     8.384911
5034.55    36.056389    10.395705
5035.76    42.870480     6.953232
5036.98    48.176144    15.296276
5038.19    36.419632    15.813527
5039.41    29.868347    11.364125
5040.62    35.995575     9.458847
5041.84    36.987484     7.993334
5043.05    40.640228    10.011511
5044.26    45.041477     7.637012
5045.48    39.372997     9.147430
5046.69    33.105339    13.046368
5047.91    38.971809     9.034420
5049.12    37.572933     7.527973
5050.34    37.987095    10.631697
5051.55    41.880150    11.973074
5052.77    40.824444    12.702758
5053.98    35.984077    14.085184
5055.20    41.434959     5.626511
5056.41    37.155354    11.391163
5057.62    29.317329    18.189894
5058.84    29.563660    13.952507
5060.05    33.831501    11.039433
5061.27    37.581059    11.463289
5062.48    37.892811    13.256956
5063.70    41.835636    11.427930
5064.91    44.193687     9.154774
5066.13    35.377079    13.651167
5067.34    35.083710    16.874870
5068.56    36.779396    10.726214
5069.77    37.543854     7.163956
5070.98    42.144264    10.059271
5072.20    47.253967     8.034425
5073.41    38.998863     9.930295
5074.63    39.532543     7.362255
5075.84    37.437748     7.916386
5077.06    25.449493    16.829615
5078.27    30.675919    19.254547
5079.49    38.213566    15.755752
5080.70    45.048756    12.147934
5081.91    43.785011     8.558802
5083.13    35.875862     4.915304
5084.34    40.150810     7.528256
5085.56    39.851074    16.527401
5086.77    33.511955    21.035089
5087.99    35.150730    16.025106
5089.20    44.993374    11.992724
5090.42    39.580139    20.164158
5091.63    32.957619    15.671807
5092.85    40.806461    10.830449
5094.06    47.028458    17.372126
5095.27    35.308392    19.401382
5096.49    41.987942    10.384365
5097.70    44.323750    12.922056
5098.92    35.270580    13.603603
5100.13    28.629900     4.758381
5101.35    29.427671    10.186258
5102.56    34.118065    11.128599
5103.78    41.447571    12.879805
5104.99    47.006050    12.593255
5106.21    48.019119     6.998893
5107.42    49.029491    12.668959
5108.63    47.592262    13.569538
5109.85    44.721695     8.598706
5111.06    45.858616     7.447528
5112.28    48.413692    11.783998
5113.49    36.958340    11.698261
5114.71    35.193455    10.323877
5115.92    32.508110    12.142571
5117.14    24.284744    15.114573
5118.35    36.625648    14.298660
5119.57    34.012161    13.184315
5120.78    32.601513    13.018946
5121.99    38.780617    14.706855
5123.21    36.136818    17.000229
5124.42    33.760696    14.345915
5125.64    46.332100    10.503595
5126.85    41.981663    10.917005
5128.07    29.075565    12.942847
5129.28    51.788376     9.617817
5130.50    37.445999     7.238244
5131.71    27.726967    10.822355
5132.93    41.629539    14.096773
5134.14    45.041542    12.989837
5135.35    36.045818    16.664209
5136.57    45.464828    14.076015
5137.78    52.631390    10.282207
5139.00    42.942181    12.432042
5140.21    42.854828    14.910971
5141.43    51.640118    14.155447
5142.64    42.141308    15.025927
5143.86    38.617245    15.562120
5145.07    58.930649    13.965099
5146.29    41.156799    19.820642
5147.50    22.680843    24.681240
5148.71    29.930853    19.348835
5149.93    44.658672    10.579020
5151.14    38.996117    13.076409
5152.36    30.555946    17.334412
5153.57    36.050121    20.858164
5154.79    41.234745    21.611202
5156.00    34.818794    16.435337
5157.22    47.895329     9.757692
5158.43    51.192284    10.974633
5159.65    46.674934    12.360978
5160.86    50.148212     8.977381
5162.07    51.336136    11.087076
5163.29    55.669113     7.202981
5164.50    52.589073     5.856565
5165.72    42.962761    11.995927
5166.93    41.868446    15.079657
5168.15    43.761272    12.285032
5169.36    54.521080    10.667347
5170.58    60.129784     8.967543
5171.79    49.262180     5.943541
5173.01    46.786922    12.543050
5174.22    46.475513    17.237476
5175.43    48.648411    16.374443
5176.65    49.549480    12.635777
5177.86    39.853024     7.885159
5179.08    51.165581    12.914806
5180.29    56.303539    18.372601
5181.51    46.375881    13.593801
5182.72    48.968346     5.907717
5183.94    44.881519    13.346621
5185.15    51.030632    13.164819
5186.36    53.366596     8.573721
5187.58    38.001324    16.703466
5188.79    52.894402    14.765372
5190.01    46.027756    12.088652
5191.22    33.202026    11.464395
5192.44    42.998226    11.040196
5193.65    31.298328    16.453005
5194.87    34.596905    14.360197
5196.08    45.577904    17.598265
5197.30    46.069721    25.896832
5198.51    49.146152    15.844214
5199.72    51.936172    14.758512
5200.94    51.043617    16.850399
5202.15    47.456661    13.640088
5203.37    47.739738    13.012983
5204.58    58.307838    12.765499
5205.80    47.767319    13.946537
5207.01    30.077803    16.500534
5208.23    42.329586    17.184727
5209.44    53.310722    13.982569
5210.66    55.020782    13.282523
5211.87    48.422871    13.685230
5213.08    38.336372    11.977689
5214.30    39.439857    14.810148
5215.51    59.926079    16.642826
5216.73    65.833458    15.541120
5217.94    41.099670    14.006788
5219.16    32.268288    13.442751
5220.37    37.005600    16.572441
5221.59    46.810440    19.568029
5222.80    51.885792    17.861698
5224.02    43.407391    13.169892
5225.23    44.795872    10.482774
5226.44    47.431259    12.204395
5227.66    44.059196    15.070196
5228.87    50.172771    13.658636
5230.09    53.757977    12.156240
5231.30    38.729713    19.920765
5232.52    25.532194    26.609575
5233.73    44.496876    14.752018
5234.95    41.167622    15.337989
5236.16    38.857693    19.541643
5237.38    53.276962    18.061285
5238.59    53.445606    20.099619
5239.80    45.054077    16.197638
5241.02    44.988457    11.243588
5242.23    54.250187     9.862638
5243.45    57.647820     9.707879
5244.66    50.094383    12.078932
5245.88    44.786762     9.898720
5247.09    47.636448    10.236296
5248.31    47.502472    21.376574
5249.52    33.557518    16.322636
5250.74    31.583490    14.743599
5251.95    43.384041    18.419773
5253.16    46.473618    10.958382
5254.38    51.146214    20.195211
5255.59    46.499058    23.698856
5256.81    38.939873    16.513218
5258.02    45.259079    18.126724
5259.24    44.122433    12.980415
5260.45    38.541775     9.629206
5261.67    38.590134    12.389647
5262.88    43.599533    13.714719
5264.10    43.240818    16.087049
5265.31    47.565132    16.993891
5266.52    47.102116    15.848513
5267.74    32.523849    15.822437
5268.95    51.545204    16.830011
5270.17    54.479725    13.621548
5271.38    35.034821    11.419546
5272.60    42.236671    18.139318
5273.81    36.090435    18.476170
5275.03    31.702888    19.654448
5276.24    38.394901    22.913364
5277.46    36.485817    17.480125
5278.67    37.121189    12.388858
5279.88    42.847015    13.026777
5281.10    45.840126    13.655090
5282.31    39.229206     9.318046
5283.53    31.747849    18.506523
5284.74    38.086849    20.725544
5285.96    50.253735    10.757227
5287.17    43.779568    15.962984
5288.39    36.335510    19.990318
5289.60    32.656406    17.870512
