#Wavelength     Flux   Variance  Subtracted Sky
#[Angstrom]   [Counts]     [Counts]    [Counts]
3600.21    18.735800    121.823100    10.479080
3604.52     4.551512    109.947500    11.750270
3608.83     5.967216    112.756600    12.353100
3613.15    10.926760    119.376100    14.967460
3617.46    10.579440    119.816700    12.951020
3621.77     0.380915    121.103100    15.174600
3626.08     7.286817    119.959400    16.395290
3630.39    24.435360    137.714800    17.922900
3634.70    14.080140    152.783300    20.270910
3639.01    -6.120582    133.399200    20.793980
3643.32    -6.634380    124.659900    18.757400
3647.63    -1.399839    125.823400    18.662390
3651.94    -0.145159    118.834600    16.180070
3656.25    -7.859915    124.915900    18.777920
3660.56     3.030235    126.033500    17.865360
3664.87     7.002820    134.360300    18.073230
3669.18    24.749940    139.348800    15.545900
3673.49    25.495760    131.846300    17.950290
3677.80    15.734700    128.761500    15.436930
3682.11    21.413860    138.040900    17.682590
3686.42     5.853036    128.013700    17.160670
3690.74    -9.839811    123.979400    15.727730
3695.05     6.998408    133.700000    17.640490
3699.36    14.570920    151.447600    22.798460
3703.67    11.554390    127.687100    20.440320
3707.98     1.968513    143.374300    22.447530
3712.29    11.441870    146.411000    20.694330
3716.60    12.852680    149.138900    21.762130
3720.91    30.837870    153.030100    17.418950
3725.22    10.812190    143.393500    18.985170
3729.53    -11.313620    136.365000    23.808960
3733.84     0.357066    142.598900    24.668290
3738.15    -1.263578    150.458800    28.794490
3742.46    10.291290    155.194600    23.321260
3746.77    11.640970    152.235600    26.418740
3751.08    15.411790    158.517200    22.409600
3755.39     3.121037    147.133100    22.291110
3759.70    12.594860    150.125600    22.718770
3764.01    27.525040    151.444800    16.281890
3768.33    16.163680    138.005100    15.898910
3772.64    28.099940    144.530300    19.272100
3776.95    29.384800    154.994000    24.303730
3781.26    14.657070    149.646200    20.739230
3785.57    -10.389590    140.132000    23.404170
3789.88     9.995316    151.200700    19.681170
3794.19    13.766730    154.099700    23.874440
3798.50    16.433320    154.599700    20.666690
3802.81    17.922690    157.560100    20.901180
3807.12    29.444490    158.608300    22.422210
3811.43    32.905090    157.045200    18.826730
3815.74    28.041580    166.330900    21.561260
3820.05    26.880420    165.043000    24.211710
3824.36    27.723030    166.453100    25.168040
3828.67    28.848730    172.738400    27.444270
3832.98    34.432530    185.441000    30.049600
3837.29    23.006100    182.042400    26.745420
3841.60     0.431769    154.503700    27.682080
3845.92    27.802610    165.491300    23.686630
3850.23    45.279790    179.152800    23.740940
3854.54    29.939370    171.838500    21.180900
3858.85    20.965680    165.840000    20.931540
3863.16    12.890190    148.721300    20.954950
3867.47    25.443870    163.396900    22.372600
3871.78    19.308730    154.564000    21.975200
3876.09    24.719120    166.933900    20.969600
3880.40    47.827200    174.477000    19.717540
3884.71    41.646970    168.900000    20.547410
3889.02    32.838870    168.366700    18.228350
3893.33     3.611885    150.861400    20.309700
3897.64    52.359140    184.752600    22.198540
3901.95    26.272190    168.754000    26.129680
3906.26    38.250770    202.486300    30.883890
3910.57    37.226010    198.783200    31.298530
3914.88    25.988660    190.722700    30.552420
3919.19    50.597270    200.082900    25.989440
3923.50    44.963700    191.039600    24.732700
3927.82    25.591140    169.799200    23.737310
3932.13    39.771990    176.746500    21.554790
3936.44    49.322790    188.859900    23.367960
3940.75    63.821360    206.194800    25.623570
3945.06    46.638920    203.975400    30.606360
3949.37    41.231230    206.332800    31.927440
3953.68    55.830610    199.942800    29.132250
3957.99    31.690850    179.934400    25.331060
3962.30    32.644570    182.480100    24.936060
3966.61    52.809350    189.287900    21.575800
3970.92    49.470560    187.150900    21.543740
3975.23    28.137630    183.959200    27.521300
3979.54    39.933190    199.682300    28.689810
3983.85    40.688850    203.587000    31.813340
3988.16    61.066950    220.085100    31.930290
3992.47    61.424400    211.645800    29.389770
3996.78    28.405010    193.244600    30.613850
4001.09    43.926500    214.935400    31.352600
4005.41    64.253650    232.913000    33.771020
4009.72    26.467080    213.423600    36.947900
4014.03    35.114390    210.656100    35.412370
4018.34    49.999860    217.902800    34.604530
4022.65    48.957300    222.797100    34.273120
4026.96    38.765030    206.953700    33.792430
4031.27    42.081380    202.038200    34.838810
4035.58    60.474410    221.328400    34.322950
4039.89    43.336950    220.948200    36.791400
4044.20    46.233620    226.404500    37.076950
4048.51    40.894500    217.810400    38.862110
4052.82    75.700910    238.166600    36.191700
4057.13    50.893470    226.387500    37.967610
4061.44    60.244720    229.086400    41.154900
4065.75    61.131390    239.410100    39.939160
4070.06    61.837750    238.167600    43.048630
4074.37    74.778670    235.904900    40.204640
4078.68    50.384060    226.263200    41.630070
4083.00    64.506390    237.020400    39.972650
4087.31    59.042400    234.393100    38.287660
4091.62    44.351830    218.291900    36.111010
4095.93     2.239545    184.463900    33.236700
4100.24    33.868400    209.014600    34.860290
4104.55    60.438470    214.466100    34.083170
4108.86    67.953450    219.369400    33.573020
4113.17    86.245630    228.554600    32.571500
4117.48    83.793330    226.068500    32.467250
4121.79    93.957370    239.247000    34.188420
4126.10    67.406590    231.567000    38.339240
4130.41    45.260420    212.245800    36.153590
4134.72    22.724980    201.159200    39.678700
4139.03    49.243940    214.717800    37.295230
4143.34    59.244500    230.299400    38.965300
4147.65    90.119240    238.834900    35.851910
4151.96    115.021900    260.202600    38.520440
4156.27    111.070300    269.447500    42.173200
4160.58    79.263340    249.834300    39.490150
4164.90    74.500130    253.762800    45.425580
4169.21    111.673300    277.186500    46.218950
4173.52    102.629300    262.161900    41.723510
4177.83    125.880600    271.106700    41.542760
4182.14    119.558600    266.040500    41.980080
4186.45    131.153200    279.646600    40.303520
4190.76    116.568100    262.211300    38.210230
4195.07    130.057500    261.009300    35.746970
4199.38    130.494900    265.825100    36.822260
4203.69    129.958500    266.874400    40.947140
4208.00    138.422200    277.799500    44.002870
4212.31    142.273000    276.329800    36.855380
4216.62    116.438900    263.859400    37.205460
4220.93    138.022200    267.020100    34.503650
4225.24    143.330100    274.821000    35.229240
4229.55    119.415300    260.113400    33.405440
4233.86    107.538900    252.890100    36.313290
4238.17    112.101600    259.038200    36.538170
4242.49    130.285300    266.850600    36.849330
4246.80    127.704200    266.136600    37.228410
4251.11    119.088100    267.890500    39.780310
4255.42    123.202400    266.684000    37.233840
4259.73    121.961500    273.462600    41.074940
4264.04    103.928200    261.883500    42.655340
4268.35    110.109700    260.498300    41.280990
4272.66    147.717400    278.739200    37.813830
4276.97    118.416800    270.301700    38.734330
4281.28    132.471200    277.281200    37.966450
4285.59    125.679100    266.752900    37.554730
4289.90    154.140600    285.045300    33.653850
4294.21    153.203500    288.770400    39.893390
4298.52    147.998900    268.584600    34.079480
4302.83    134.274800    266.922900    35.050680
4307.14    139.279800    279.860800    39.583620
4311.45    148.455600    287.765200    44.204070
4315.76    123.334400    281.320700    43.531960
4320.08    121.245300    271.808300    41.280190
4324.39    161.562900    294.165800    40.358880
4328.70    190.227200    310.732100    39.789740
4333.01    155.654500    285.639200    39.800200
4337.32    178.505300    303.357800    39.268470
4341.63    155.099800    288.823300    36.222170
4345.94    131.283700    281.173700    42.716630
4350.25    105.658000    265.425700    40.833480
4354.56    150.947900    296.638500    44.167610
4358.87    178.889100    314.496500    44.403830
4363.18    147.382500    286.502700    46.261590
4367.49    169.178300    307.219300    41.746980
4371.80    128.215400    283.203600    42.041190
4376.11    145.182200    294.642800    44.823690
4380.42    146.411200    289.194900    41.288690
4384.73    153.402500    289.708900    40.850230
4389.04    185.480800    318.034300    44.643760
4393.35    161.410200    297.264700    45.381410
4397.67    213.773900    331.526300    42.066700
4401.98    160.276200    307.284400    51.495110
4406.29    174.643400    322.930300    52.978180
4410.60    145.546900    319.994500    55.253330
4414.91    145.846000    312.611300    52.430030
4419.22    160.201000    321.644100    50.272670
4423.53    178.466700    336.443900    53.015120
4427.84    173.382100    329.431300    50.534520
4432.15    187.307700    336.375700    50.825560
4436.46    167.983900    319.001600    49.321170
4440.77    148.558400    306.940500    49.398790
4445.08    150.987500    309.657500    49.284780
4449.39    185.583400    323.012400    46.946380
4453.70    165.421500    305.041700    45.478730
4458.01    168.661000    305.075500    43.487100
4462.32    168.502500    314.894000    42.317520
4466.63    172.147900    318.563300    43.032190
4470.94    142.261400    296.534900    43.291570
4475.25    139.111000    291.100100    43.176630
4479.57    135.815300    294.323200    44.575800
4483.88    150.035300    307.150900    44.790750
4488.19    129.034600    290.354600    48.316220
4492.50    158.758900    310.203200    48.931300
4496.81    186.002600    331.770300    48.823020
4501.12    187.048100    328.521400    49.426460
4505.43    193.751600    339.055900    50.951520
4509.74    202.530300    342.605800    51.062210
4514.05    215.809900    352.565500    49.790950
4518.36    234.184300    359.215400    48.553950
4522.67    190.359900    334.746300    49.184560
4526.98    198.234800    340.480600    53.666400
4531.29    254.772300    378.619000    54.742780
4535.60    209.591400    360.671600    56.603520
4539.91    229.062100    368.565000    54.014790
4544.22    265.263200    395.209100    56.033170
4548.53    267.586200    395.567400    55.469160
4552.84    236.634500    372.691900    53.743350
4557.16    203.296500    351.301900    53.502180
4561.47    208.935900    345.749400    50.675160
4565.78    236.633200    366.964800    47.387150
4570.09    221.603500    365.469000    50.109550
4574.40    227.202500    360.819000    51.918120
4578.71    255.918500    373.226700    53.200280
4583.02    252.682100    376.104200    52.517720
4587.33    231.424800    371.180300    54.455750
4591.64    233.613700    372.080600    55.455000
4595.95    238.880700    367.268500    51.448910
4600.26    244.596700    370.809900    52.332840
4604.57    255.443500    372.511200    49.630290
4608.88    254.467700    385.902100    51.309150
4613.19    252.814100    383.292600    54.216790
4617.50    236.547800    365.958700    52.952130
4621.81    277.409000    398.526600    52.807380
4626.12    272.111800    395.666000    53.656850
4630.43    273.982500    387.675500    52.590430
4634.75    284.710100    388.544500    49.525360
4639.06    273.416200    380.804000    48.808710
4643.37    262.113900    381.419700    49.531030
4647.68    226.775100    357.472700    48.820170
4651.99    256.068800    376.545900    50.484220
4656.30    294.091400    409.110900    52.112930
4660.61    303.995100    418.258400    58.738790
4664.92    300.382200    416.433200    59.294210
4669.23    309.315000    410.374900    54.537220
4673.54    312.833900    417.976800    57.804720
4677.85    299.628800    415.203000    57.606960
4682.16    338.220400    434.870600    56.433740
4686.47    308.523800    416.907000    56.266620
4690.78    327.879500    425.448900    53.229460
4695.09    331.904000    421.792300    51.229620
4699.40    349.324600    439.523300    55.197480
4703.71    337.235800    427.578300    53.474380
4708.02    321.054800    427.023900    55.371490
4712.33    323.008500    417.824200    53.419270
4716.65    277.536200    397.889800    57.903840
4720.96    278.644000    403.663300    60.246200
4725.27    295.591600    408.416300    54.714950
4729.58    321.768800    422.110900    54.278960
4733.89    310.506900    415.975300    56.476550
4738.20    324.527800    421.129700    58.659300
4742.51    326.106100    423.246900    56.559500
4746.82    337.422500    424.781200    54.736630
4751.13    329.170500    426.917800    55.771470
4755.44    354.532400    441.525000    55.537450
4759.75    358.072700    441.769400    55.083530
4764.06    364.090100    440.196100    51.825290
4768.37    307.120800    410.792100    52.476480
4772.68    293.217400    407.489500    54.792560
4776.99    357.533800    443.885600    53.529060
4781.30    368.370300    447.674900    54.395200
4785.61    337.884400    434.161900    56.974150
4789.92    353.288400    443.114400    57.092700
4794.24    375.731800    463.222400    57.210440
4798.55    388.804000    475.306100    59.815290
4802.86    370.416600    459.890400    59.898840
4807.17    365.014000    449.152400    58.750720
4811.48    415.897900    485.322700    58.822010
4815.79    375.419400    468.289700    63.068300
4820.10    414.934300    502.380900    65.827350
4824.41    398.241800    486.677800    67.835790
4828.72    407.459000    494.843700    65.765630
4833.03    399.516500    497.486600    65.046770
4837.34    340.784700    461.512000    63.011470
4841.65    351.580200    454.191700    61.294550
4845.96    366.837300    467.501800    66.306100
4850.27    358.655600    452.168700    57.240090
4854.58    392.858400    474.157000    57.545390
4858.89    356.991000    439.231800    54.257950
4863.20    306.293200    410.770500    54.734580
4867.51    347.206500    446.048600    53.065050
4871.83    344.893900    441.007100    54.712670
4876.14    367.598300    455.339800    56.632870
4880.45    364.584500    462.122500    57.921680
4884.76    382.082500    478.712600    60.048770
4889.07    397.234600    484.985600    58.278500
4893.38    328.375900    437.391800    60.983750
4897.69    320.473000    433.801600    63.156600
4902.00    336.466000    446.465800    62.075930
4906.31    379.643800    477.202800    62.097130
4910.62    407.561700    486.698400    59.475970
4914.93    396.180800    478.090100    62.788770
4919.24    393.950200    472.052900    56.043290
4923.55    362.126200    446.757900    59.757190
4927.86    420.219500    482.439100    55.649250
4932.17    390.725100    479.341900    60.244880
4936.48    400.395800    474.781800    56.933460
4940.79    441.662000    505.338000    64.117880
4945.10    410.153000    480.686500    58.048840
4949.42    412.765500    489.638600    63.376300
4953.73    410.465100    484.690200    62.705880
4958.04    414.406300    486.082700    60.561290
4962.35    402.584500    477.992800    60.516250
4966.66    419.515200    495.944500    63.766900
4970.97    393.691700    484.295200    63.850180
4975.28    405.543500    491.584400    64.315560
4979.59    429.825400    497.170100    62.629610
4983.90    421.856300    493.987500    59.630080
4988.21    432.807800    496.224200    59.965010
4992.52    429.672900    501.692600    61.930730
4996.83    414.390100    487.752000    63.545110
5001.14    442.238200    512.436800    63.006560
5005.45    448.433600    509.091000    66.379030
5009.76    433.095600    498.004900    59.496940
5014.07    423.895300    496.272200    60.306220
5018.38    424.579400    495.344100    60.032110
5022.69    449.503400    508.055300    60.038830
5027.00    453.684100    505.763500    61.283360
5031.32    454.289800    506.811700    61.458910
5035.63    449.329600    507.457500    61.710000
5039.94    419.058600    479.122500    60.606400
5044.25    442.236800    498.127600    57.845810
5048.56    435.022800    497.628600    58.999110
5052.87    440.113700    499.855200    61.621790
5057.18    452.615800    509.397900    61.831740
5061.49    418.012000    487.554900    63.335430
5065.80    398.500800    472.568100    64.298450
5070.11    386.076400    464.926900    60.385310
5074.42    415.739400    485.239800    62.164530
5078.73    431.085100    491.120900    59.064100
5083.04    451.859500    501.110100    59.267780
5087.35    432.102200    493.971600    60.383650
5091.66    407.576100    650.383400    65.584180
5095.97    445.930900    671.675800    62.006030
5100.28    520.613500    733.809200    61.716020
5104.59    502.086900    537.714100    64.154480
5108.91    468.062700    515.549000    62.755660
5113.22    458.523400    511.388200    64.122960
5117.53    423.455900    490.916100    64.387460
5121.84    465.718700    511.786000    61.252040
5126.15    449.555000    510.233800    65.100070
5130.46    450.731800    509.139400    65.500420
5134.77    499.470000    542.761600    66.833370
5139.08    523.375100    556.510900    63.670090
5143.39    464.150400    520.834400    66.137980
5147.70    442.303500    506.056900    71.243970
5152.01    500.928300    537.742500    67.128690
5156.32    492.088800    539.167300    71.976460
5160.63    499.553000    532.818200    66.390770
5164.94    500.851100    531.718100    61.793210
5169.25    489.064100    519.703900    60.161580
5173.56    453.016400    499.600100    63.309550
5177.87    470.504500    509.012000    63.331340
5182.18    517.828700    538.896700    62.155280
5186.50    500.180500    540.379400    65.893000
5190.81    464.888600    533.314000    73.080390
5195.12    457.739200    545.716100    81.674140
5199.43    454.809100    555.226700    91.048500
5203.74    483.608900    546.032200    79.152250
5208.05    504.339600    535.630000    65.746140
5212.36    449.296800    512.081200    68.804890
5216.67    468.485500    526.492900    69.440390
5220.98    469.488400    529.854400    75.627060
5225.29    420.861500    500.849400    71.890910
5229.60    426.332800    496.920700    67.431270
5233.91    484.039900    536.220300    72.886200
5238.22    508.012600    551.971300    72.495930
5242.53    491.485000    538.762600    72.329120
5246.84    472.127800    530.171300    71.953080
5251.15    461.396100    527.854400    75.473110
5255.46    467.113500    534.280900    77.588920
5259.77    464.421100    525.329000    74.698340
5264.08    481.410500    520.842500    66.726970
5268.40    525.716500    542.457100    65.710990
5272.71    536.187900    569.167500    69.995370
5277.02    533.218800    565.841500    72.496640
5281.33    506.420100    542.362700    68.997360
5285.64    499.932900    541.727800    63.904440
5289.95    497.900500    549.665300    71.497190
5294.26    459.721400    528.075400    77.209340
5298.57    484.211000    531.225100    73.326270
5302.88    527.336700    567.321000    74.288010
5307.19    521.792600    566.834500    73.455010
5311.50    506.900300    556.529800    77.652880
5315.81    502.347700    553.358800    75.725360
5320.12    475.966700    544.613600    78.222120
5324.43    475.784400    530.724200    72.465490
5328.74    468.885500    528.320800    74.934360
5333.05    475.641100    544.819300    77.045470
5337.36    503.019700    552.989600    74.482980
5341.67    483.005700    543.202400    73.080760
5345.99    479.056900    539.198700    70.080910
5350.30    474.293900    539.096000    72.501950
5354.61    448.564500    523.044400    76.040920
