#Wavelength     Flux    Sky Spectrum 
#[Angstrom]   [Counts]     [Counts]
3662.25    61.967892    72.976990
3663.72    83.295952    101.639679
3665.19    33.421982    66.127151
3666.66    94.992958    99.287445
3668.13    86.126396    76.647491
3669.60    96.641876    103.207329
3671.07    73.469940    88.434227
3672.54    94.904716    118.509933
3674.01    94.197731    81.371483
3675.48    107.557915    109.162056
3676.95    110.828506    110.628044
3678.42    124.454414    131.403214
3679.89    112.192047    115.820282
3681.36    112.505180    102.352852
3682.83    99.676285    104.968300
3684.30    116.650589    134.700592
3685.77    100.411087    103.675667
3687.24    76.347687    102.799408
3688.71    86.401237    62.572865
3690.18    115.898788    103.502647
3691.65    116.417282    121.790245
3693.12    97.065773    85.160995
3694.59    95.233681    97.396828
3696.06    107.174805    110.270416
3697.53    96.654045    84.572983
3699.00    106.333191    105.147850
3700.47    138.166443    148.011963
3701.94    102.481865    105.252151
3703.41    109.424385    104.129951
3704.88    147.304382    168.829636
3706.35    145.541031    145.379425
3707.82    131.080261    126.302040
3709.30    102.074432    89.413277
3710.77    111.443680    85.870911
3712.24    109.393990    106.992058
3713.71    123.630287    106.549713
3715.18    115.748665    103.641487
3716.65    163.873535    142.265640
3718.12    130.698334    114.307777
3719.59    110.319893    89.977859
3721.06    124.288513    116.835205
3722.53    120.255653    119.134163
3724.00    102.014450    89.692711
3725.47    122.347023    113.107094
3726.94    129.093933    144.630600
3728.41    162.668777    178.307907
3729.88    135.514679    126.030663
3731.35    163.678284    166.211182
3732.82    124.248589    108.658928
3734.29    149.968826    156.164948
3735.76    115.457596    98.118820
3737.23    100.540993    105.366470
3738.70    88.001312    76.010788
3740.17    142.763031    135.792389
3741.64    103.153839    106.042358
3743.11    107.463791    90.304367
3744.58    77.535545    95.556145
3746.05    116.706703    113.740776
3747.52    153.563202    155.392380
3748.99    125.540184    109.282959
3750.46    132.448654    137.928482
3751.93    181.082916    169.902451
3753.40    152.059387    165.429230
3754.87    118.978889    108.185379
3756.34    135.220901    128.443771
3757.81    96.469910    77.110207
3759.28    98.196213    101.980331
3760.75    110.797470    110.392479
3762.22    116.416191    105.623756
3763.69    125.321068    118.896149
3765.16    123.654602    132.523621
3766.63    142.416443    141.698608
3768.10    143.961411    151.668289
3769.57    117.480156    113.213219
3771.04    129.330704    143.364212
3772.51    122.017967    127.943939
3773.98    116.858017    118.454430
3775.45    102.055435    89.974174
3776.92    89.114838    77.333778
3778.39    145.233368    148.237823
3779.86    186.176514    180.275406
3781.33    164.574005    156.702087
3782.80    124.781784    123.582565
3784.27    131.500641    98.776283
3785.74    187.367401    198.750702
3787.21    135.668182    129.184494
3788.68    115.599968    107.372429
3790.15    101.961510    103.563576
3791.62    107.955498    102.654762
3793.09    128.674515    157.814056
3794.56    94.069328    98.310959
3796.03    127.822197    119.680962
3797.50    129.960281    129.122726
3798.97    145.345627    138.037643
3800.44    100.956200    95.217171
3801.91    100.363388    87.547409
3803.38    84.214935    101.501999
3804.85    106.663460    129.479294
3806.32    89.309837    94.246819
3807.79    121.847237    123.669136
3809.26    81.831383    87.745552
3810.73    116.833633    103.773697
3812.20    167.135773    167.714569
3813.67    211.897888    208.088058
3815.14    166.116638    159.781815
3816.62    132.272049    146.902161
3818.09    131.902267    143.687668
3819.56    158.738464    161.354279
3821.03    168.834396    167.353439
3822.50    134.160004    123.826363
3823.97    132.709885    126.498383
3825.44    137.343140    137.156708
3826.91    170.106125    166.952499
3828.38    153.878036    149.858414
3829.85    144.940186    141.210937
3831.32    153.146057    135.561890
3832.79    208.554138    224.370392
3834.26    163.502380    169.983551
3835.73    187.837051    192.750763
3837.20    196.119019    188.963211
3838.67    179.410110    185.540451
3840.14    180.752090    195.693558
3841.61    205.288666    202.829437
3843.08    187.003708    175.860031
3844.55    179.436859    178.147278
3846.02    148.654175    154.687027
3847.49    179.103668    192.610626
3848.96    113.319176    132.018433
3850.43    117.627014    131.757706
3851.90    160.921677    189.451675
3853.37    174.420822    180.144714
3854.84    119.668228    141.183105
3856.31    158.707550    172.132034
3857.78    165.566177    163.385742
3859.25    135.876877    149.571701
3860.72    181.701599    182.574661
3862.19    139.764999    139.525955
3863.66    145.308578    144.507828
3865.13    175.087372    168.342514
3866.60    174.592896    159.865433
3868.07    165.253357    156.009811
3869.54    145.165939    144.312012
3871.01    148.414597    133.471405
3872.48    171.899048    155.978622
3873.95    130.393768    134.131363
3875.42    93.510376    72.959152
3876.89    128.882751    118.032997
3878.36    132.921066    149.495056
3879.83    119.571732    108.962547
3881.30    108.756378    117.795189
3882.77    127.721909    127.980026
3884.24    107.462837    80.032173
3885.71    138.626434    149.944656
3887.18    99.675301    115.848869
3888.65    100.796272    106.049255
3890.12    93.099785    94.361191
3891.59    98.902039    86.974236
3893.06    115.055702    109.155342
3894.53    103.666039    103.411354
3896.00    92.427582    96.277725
3897.47    112.011475    127.098434
3898.94    77.725136    63.112404
3900.41    138.286606    146.836761
3901.88    121.762184    121.306564
3903.35    138.762131    127.752998
3904.82    113.186729    100.718384
3906.29    105.229721    106.678131
3907.76    173.802795    182.031158
3909.23    143.224457    132.507797
3910.70    152.298615    154.896393
3912.17    102.744026    110.252502
3913.64    130.248032    136.433212
3915.11    87.090302    88.641571
3916.58    120.728195    123.017433
3918.05    126.007332    113.988945
3919.52    145.264084    169.665665
3920.99    121.310928    130.350388
3922.46    139.152695    143.900696
3923.94    159.301727    171.013657
3925.41    134.979797    142.732925
3926.88    139.686783    112.538788
3928.35    162.411484    132.703690
3929.82    139.462524    132.056870
3931.29    132.827194    141.255981
3932.76    151.443558    154.752579
3934.23    183.202499    186.048203
3935.70    157.868103    165.782394
3937.17    123.954948    113.162926
3938.64    118.257362    125.008575
3940.11    158.440613    156.230286
3941.58    152.561447    163.513260
3943.05    127.719986    133.883759
3944.52    151.243744    167.789047
3945.99    112.599854    125.731972
3947.46    179.301331    197.294693
3948.93    172.720566    189.359970
3950.40    122.206902    129.472229
3951.87    152.611542    151.465073
3953.34    159.509659    181.447800
3954.81    180.998840    197.947906
3956.28    195.732147    207.367981
3957.75    173.888153    169.143555
3959.22    151.909790    128.921555
3960.69    206.961349    201.482376
3962.16    198.476822    196.704727
3963.63    164.827835    156.136230
3965.10    170.078430    175.446167
3966.57    198.470657    189.676132
3968.04    207.260040    203.831863
3969.51    206.887314    201.138611
3970.98    222.352997    225.180649
3972.45    229.319473    241.660477
3973.92    240.706757    243.091476
3975.39    232.875122    241.706100
3976.86    185.219604    183.833374
3978.33    151.028412    156.132309
3979.80    169.237213    170.269897
3981.27    141.707260    126.800941
3982.74    165.597763    159.393204
3984.21    150.205383    142.868042
3985.68    166.625244    115.854179
3987.15    117.460907    102.717758
3988.62    120.599159    101.739128
3990.09    67.525978    74.565559
3991.56    97.876633    102.120201
3993.03    100.548386    108.761429
3994.50    113.471153    121.609962
3995.97    125.913956    141.497711
3997.44    172.830841    185.868362
3998.91    178.644928    180.219269
4000.38    146.134247    145.490631
4001.85    153.325958    154.317322
4003.32    151.492157    154.110870
4004.79    193.130295    206.137451
4006.26    178.134323    175.653976
4007.73    198.932541    201.984558
4009.20    212.233810    202.801956
4010.67    240.288071    245.031570
4012.14    232.757614    235.467468
4013.61    243.872620    263.852356
4015.08    248.638214    259.461884
4016.55    198.991013    199.361389
4018.02    228.923431    235.183456
4019.49    183.191376    171.201904
4020.96    161.920197    186.670151
4022.43    132.265045    154.443314
4023.90    176.212158    197.762268
4025.37    77.772408    58.202938
4026.84    57.303082    71.056747
4028.31    115.078041    104.583427
4029.78    127.493729    120.166695
4031.26    160.752716    180.882004
4032.73    182.324081    165.805664
4034.20    159.509140    141.286530
4035.67    181.537079    170.496048
4037.14    195.322372    200.437576
4038.61    231.451736    222.753418
4040.08    245.703705    264.875488
4041.55    209.635254    219.835266
4043.02    274.460266    262.497498
4044.49    261.000244    239.666412
4045.96    273.535400    261.769928
4047.43    300.723083    290.805786
4048.90    289.162872    307.276886
4050.37    305.438385    307.724213
4051.84    340.802338    316.153748
4053.31    313.860596    321.956451
4054.78    295.071075    304.436584
4056.25    281.028656    274.057343
4057.72    290.369049    280.785522
4059.19    315.110016    315.756226
4060.66    375.459442    379.488678
4062.13    303.150818    275.886261
4063.60    252.885712    247.133316
4065.07    299.129333    313.198364
4066.54    307.350922    288.846893
4068.01    308.992584    293.722229
4069.48    344.240784    359.272644
4070.95    317.716064    325.022797
4072.42    287.345154    270.333862
4073.89    344.136566    344.073029
4075.36    357.397247    360.602478
4076.83    362.841003    381.892303
4078.30    333.270264    335.107025
4079.77    321.467896    308.022766
4081.24    383.141113    372.599030
4082.71    377.496796    366.248108
4084.18    391.516510    385.688324
4085.65    307.162476    298.954834
4087.12    335.147522    324.421600
4088.59    391.702362    377.742828
4090.06    353.391571    359.781708
4091.53    358.098145    345.135223
4093.00    404.895782    404.336823
4094.47    333.670258    359.619598
4095.94    298.460358    301.718872
4097.41    379.374573    400.056793
4098.88    378.231781    393.109650
4100.35    350.222809    355.149384
4101.82    349.345856    328.001282
4103.29    322.443024    324.507904
4104.76    332.072021    353.068085
4106.23    310.364990    308.745819
4107.70    348.398437    373.965088
4109.17    429.528229    421.120880
4110.64    364.408783    373.517914
4112.11    380.155212    377.217804
4113.58    387.582214    397.136658
4115.05    380.080444    386.945587
4116.52    327.554779    315.865173
4117.99    380.372772    368.753143
4119.46    413.813538    407.817505
4120.93    318.036652    314.779572
4122.40    332.907288    338.154541
4123.87    368.617218    355.038635
4125.34    373.294556    360.197510
4126.81    401.749451    400.402008
4128.28    357.209259    362.033539
4129.75    353.838531    368.850555
4131.22    384.042206    391.846161
4132.69    391.329163    376.265900
4134.16    399.282501    408.284302
4135.63    380.375916    374.732819
4137.10    405.170074    401.225403
4138.58    308.702393    287.190521
4140.05    435.205261    434.686523
4141.52    424.739288    431.985138
4142.99    463.273285    464.282349
4144.46    440.961548    450.893219
4145.93    493.353912    498.233887
4147.40    446.266144    429.748047
4148.87    427.248047    416.030396
4150.34    385.785034    389.185822
4151.81    452.632019    454.305542
4153.28    397.134766    391.955231
4154.75    474.084900    495.517853
4156.22    428.469513    423.527161
4157.69    436.213867    437.273132
4159.16    400.393646    415.290863
4160.63    348.579102    342.155487
4162.10    394.118500    384.983185
4163.57    381.958313    378.276947
4165.04    452.646729    444.508606
4166.51    421.003265    411.133362
4167.98    359.221649    358.817444
4169.45    412.076782    412.737396
4170.92    449.096710    449.146088
4172.39    445.008331    459.068542
4173.86    430.831848    433.916595
4175.33    470.928619    470.304291
4176.80    488.372284    476.073273
4178.27    469.022247    483.640717
4179.74    475.898010    482.630096
4181.21    433.702271    416.992493
4182.68    501.071198    508.875153
4184.15    470.525024    473.675018
4185.62    424.476044    417.535370
4187.09    442.926910    436.435974
4188.56    454.975708    445.190979
4190.03    434.913971    447.317322
4191.50    402.097382    388.419250
4192.97    423.337494    416.703644
4194.44    448.380310    452.226593
4195.91    445.579102    439.203888
4197.38    399.572754    407.307465
4198.85    461.678558    476.450775
4200.32    477.426727    485.803955
4201.79    461.522644    455.964935
4203.26    512.655029    527.492676
4204.73    483.610016    488.783752
4206.20    489.497559    492.746765
4207.67    477.838165    487.524902
4209.14    450.519196    445.936005
4210.61    441.261414    439.685303
4212.08    428.848053    428.938019
4213.55    440.034668    433.574493
4215.02    437.685516    432.518951
4216.49    432.197754    431.550323
4217.96    450.317627    447.716797
4219.43    445.728729    439.372040
4220.90    447.027008    447.085510
4222.37    500.507629    495.551636
4223.84    511.509277    507.251251
4225.31    483.165253    488.757416
4226.78    459.970978    455.347321
4228.25    495.165833    490.213348
4229.72    506.296326    504.900940
4231.19    461.847717    463.535492
4232.66    509.543701    499.853027
4234.13    461.560394    446.397980
4235.60    470.802551    469.123657
4237.07    484.674347    479.102417
4238.54    437.421082    417.935852
4240.01    463.744751    480.993835
4241.48    541.082397    537.555847
4242.95    435.049713    439.898560
4244.42    520.262512    538.658447
4245.90    529.885559    528.630981
4247.37    484.635101    482.555328
4248.84    511.725555    506.543091
4250.31    542.666016    565.341248
4251.78    526.284363    522.532593
4253.25    524.986938    528.685913
4254.72    492.045868    505.106445
4256.19    446.189911    471.969635
4257.66    479.998962    485.268372
4259.13    493.087799    506.050537
4260.60    479.378906    485.178558
4262.07    518.752563    515.350647
4263.54    459.006531    460.344666
4265.01    528.974792    537.930603
4266.48    562.699463    570.468262
4267.95    535.687927    542.083923
4269.42    539.658569    545.558228
4270.89    563.739014    563.090271
4272.36    572.372131    576.655579
4273.83    548.403931    528.750671
4275.30    518.272522    518.438721
4276.77    567.419067    548.637939
4278.24    563.364136    545.437134
4279.71    606.123962    608.202332
4281.18    585.407532    566.180847
4282.65    571.498779    570.538269
4284.12    585.187622    592.440796
4285.59    562.071960    552.110291
4287.06    606.031372    623.939758
4288.53    518.573059    530.617615
4290.00    545.998413    549.050598
4291.47    531.278015    546.973633
4292.94    549.246887    551.834106
4294.41    523.554749    505.498322
4295.88    516.781006    511.444275
4297.35    622.953918    607.905823
4298.82    599.147400    598.218323
4300.29    579.912231    566.132141
4301.76    625.229492    635.086670
4303.23    599.202576    595.538330
4304.70    583.311890    586.758484
4306.17    656.717346    653.352661
4307.64    616.921143    609.362976
4309.11    655.369202    659.758606
4310.58    625.708130    635.123047
4312.05    619.700012    613.252258
4313.52    613.749390    611.218201
4314.99    592.100037    591.077515
4316.46    611.346680    624.954102
4317.93    560.914063    552.090454
4319.40    600.291199    612.731628
4320.87    622.428528    627.970215
4322.34    605.567017    609.592651
4323.81    655.147095    669.614014
4325.28    600.812073    602.790405
4326.75    631.335205    627.527344
4328.22    632.796631    627.486450
4329.69    606.876282    598.331909
4331.16    613.325134    605.220520
4332.63    622.958923    622.654358
4334.10    585.471069    583.037720
4335.57    506.868927    497.961914
4337.04    566.121826    565.772644
4338.51    571.732727    596.200317
4339.98    596.203125    598.947449
4341.45    622.972351    620.278564
4342.92    640.425842    635.260254
4344.39    707.085876    714.199219
4345.86    653.550781    672.967773
4347.33    688.017090    690.498718
4348.80    640.310730    638.586487
4350.27    600.913269    600.873230
4351.74    678.410400    680.190125
4353.22    618.936951    625.576660
4354.69    597.967957    600.228210
4356.16    625.653076    643.319641
4357.63    569.714417    560.907471
4359.10    563.175171    538.371399
4360.57    585.822327    547.147034
4362.04    517.978577    510.349670
4363.51    482.230194    475.523499
4364.98    504.091461    499.652527
4366.45    521.956482    532.088745
4367.92    456.399811    453.491089
4369.39    458.917664    448.662079
4370.86    486.325104    496.098267
4372.33    465.624115    468.493073
4373.80    480.764587    490.191376
4375.27    507.823456    509.043518
4376.74    564.726624    559.660645
4378.21    624.207153    623.515808
4379.68    693.604980    683.698181
4381.15    728.323242    723.516724
4382.62    741.529053    741.201721
4384.09    704.807251    699.730408
4385.56    757.676392    749.601807
4387.03    780.284607    778.432068
4388.50    710.387024    710.072205
4389.97    679.382202    663.472168
4391.44    651.092773    639.994751
4392.91    680.486450    682.533997
4394.38    764.261230    772.866272
4395.85    741.745605    747.242310
4397.32    790.218445    794.936157
4398.79    801.266113    791.175598
4400.26    815.870728    807.403381
4401.73    756.825867    757.169250
4403.20    686.375549    691.177368
4404.67    741.543579    749.861267
4406.14    696.758362    683.907349
4407.61    697.170105    685.376526
4409.08    771.118652    785.079773
4410.55    730.701965    737.002563
4412.02    799.497314    822.542664
4413.49    822.516846    838.983154
4414.96    713.022522    696.252075
4416.43    800.788574    791.927612
4417.90    828.455078    820.817810
4419.37    747.779297    739.250549
4420.84    769.062134    773.334778
4422.31    790.098389    785.321533
4423.78    829.645508    809.392029
4425.25    808.326050    804.277161
4426.72    856.205627    841.591125
4428.19    835.495850    833.035583
4429.66    932.561523    940.683472
4431.13    851.618286    853.687012
4432.60    979.150574    975.198730
4434.07    894.884827    894.676270
4435.54    770.523010    756.869202
4437.01    806.794617    804.612244
4438.48    873.824036    839.985840
4439.95    844.324707    834.731384
4441.42    817.800842    814.632507
4442.89    834.536011    833.571289
4444.36    799.512085    793.899902
4445.83    739.919739    736.595032
4447.30    803.581909    824.025208
4448.77    803.934387    807.236755
4450.24    738.327820    727.704834
4451.71    711.811096    720.188354
4453.18    777.135742    778.496765
4454.65    772.139160    776.612793
4456.12    781.907898    784.318970
4457.59    805.540527    805.955383
4459.06    906.626465    904.588989
4460.54    910.648376    908.734375
4462.01    921.057495    926.540710
4463.48    869.810547    872.344849
4464.95    894.991943    885.400757
4466.42    853.633789    874.662964
4467.89    814.071899    813.091309
4469.36    863.451477    867.126099
4470.83    864.384338    860.856995
4472.30    893.803772    894.436829
4473.77    915.619141    912.696472
4475.24    872.994568    886.140686
4476.71    878.045593    885.093445
