#Wavelength     Flux
#[Angstrom]   [Counts]
3932.25    815.627600
3933.89    887.932900
3935.52    950.530200
3937.16    789.742600
3938.79    471.604100
3940.42    608.697000
3942.06    684.188000
3943.69    691.868300
3945.32    736.218400
3946.96    835.627700
3948.59    891.979400
3950.23    796.647500
3951.86    632.772000
3953.49    450.170600
3955.13    566.218200
3956.76    625.679000
3958.39    724.575400
3960.03    732.781800
3961.66    690.590000
3963.30    779.664000
3964.93    964.737100
3966.56    611.946000
3968.20    695.036000
3969.83    783.175300
3971.47    682.993300
3973.10    875.458500
3974.73    719.200700
3976.37    529.201700
3978.00    938.359100
3979.64    898.106900
3981.27    735.792100
3982.90    1020.059000
3984.54    1131.812000
3986.17    980.556600
3987.80    1128.359000
3989.44    924.375700
3991.07    854.821800
3992.71    903.951500
3994.34    798.556700
3995.97    685.112900
3997.61    935.492600
3999.24    822.350300
4000.88    645.989200
4002.51    672.046900
4004.14    795.993300
4005.78    986.183100
4007.41    1083.221000
4009.04    894.271500
4010.68    837.645300
4012.31    1047.218000
4013.95    826.388500
4015.58    735.774700
4017.21    985.061500
4018.85    943.609900
4020.48    960.995700
4022.11    837.792800
4023.75    800.083800
4025.38    887.399900
4027.02    1186.320000
4028.65    1234.856000
4030.28    966.805600
4031.92    828.557000
4033.55    1127.886000
4035.19    1240.678000
4036.82    938.101900
4038.45    903.891800
4040.09    1072.300000
4041.72    1082.237000
4043.36    994.377800
4044.99    937.077400
4046.62    840.572100
4048.26    660.307600
4049.89    714.988500
4051.52    641.108900
4053.16    534.293400
4054.79    692.965500
4056.43    688.487100
4058.06    395.921200
4059.69    374.317700
4061.33    515.012400
4062.96    737.867400
4064.59    785.674200
4066.23    1210.150000
4067.86    1193.716000
4069.50    1033.615000
4071.13    1186.713000
4072.76    1121.835000
4074.40    937.192600
4076.03    946.283800
4077.67    956.998100
4079.30    1166.182000
4080.93    1008.404000
4082.57    992.262000
4084.20    871.873500
4085.84    737.131900
4087.47    704.393900
4089.10    573.204700
4090.74    511.408400
4092.37    835.903400
4094.01    836.537700
4095.64    673.003500
4097.27    890.016200
4098.91    1267.883000
4100.54    1256.730000
4102.17    1363.356000
4103.81    1274.757000
4105.44    1124.984000
4107.07    1294.955000
4108.71    1250.825000
4110.34    1147.332000
4111.98    1455.406000
4113.61    1495.297000
4115.24    1333.519000
4116.88    1534.662000
4118.51    1725.211000
4120.15    1542.853000
4121.78    1290.433000
4123.41    1364.220000
4125.05    1282.565000
4126.68    1543.073000
4128.31    1562.041000
4129.95    1347.050000
4131.58    1362.385000
4133.22    1436.770000
4134.85    1289.827000
4136.48    1275.484000
4138.12    1465.077000
4139.75    1463.268000
4141.39    1401.272000
4143.02    1377.589000
4144.65    1682.948000
4146.29    1823.153000
4147.92    1667.145000
4149.56    1487.120000
4151.19    1369.293000
4152.82    1416.993000
4154.46    1385.534000
4156.09    1335.228000
4157.73    1286.492000
4159.36    1465.585000
4160.99    1536.969000
4162.63    1490.236000
4164.26    1190.026000
4165.89    1585.185000
4167.53    1476.268000
4169.16    1381.722000
4170.80    1171.593000
4172.43    1233.852000
4174.06    1470.494000
4175.70    1551.543000
4177.33    1525.825000
4178.97    1438.368000
4180.60    1315.628000
4182.23    1282.946000
4183.87    1257.382000
4185.50    1246.882000
4187.13    1191.005000
4188.77    1361.394000
4190.40    1356.583000
4192.04    1193.962000
4193.67    1196.060000
4195.30    1255.742000
4196.94    1418.487000
4198.57    1217.418000
4200.20    1395.508000
4201.84    1551.712000
4203.47    1417.250000
4205.11    1465.683000
4206.74    1363.390000
4208.37    1353.260000
4210.01    1531.805000
4211.64    1592.147000
4213.27    1481.876000
4214.91    1604.630000
4216.54    1518.013000
4218.18    1580.630000
4219.81    1445.504000
4221.44    1446.296000
4223.08    1585.766000
4224.71    1504.511000
4226.35    1258.628000
4227.98    1219.743000
4229.61    1229.434000
4231.25    1254.579000
4232.88    1432.019000
4234.52    1280.731000
4236.15    1439.775000
4237.78    1684.707000
4239.42    1533.761000
4241.05    1542.780000
4242.69    1542.588000
4244.32    1472.293000
4245.95    1578.228000
4247.59    1586.211000
4249.22    1726.612000
4250.85    1632.070000
4252.49    1657.059000
4254.12    1633.364000
4255.76    1402.923000
4257.39    1387.784000
4259.02    1314.174000
4260.66    1510.440000
4262.29    1403.699000
4263.93    1255.722000
4265.56    1272.953000
4267.19    1299.177000
4268.83    1481.512000
4270.46    1326.111000
4272.09    1413.135000
4273.73    1325.192000
4275.36    1411.043000
4277.00    1517.120000
4278.63    1425.442000
4280.26    1476.912000
4281.90    1193.439000
4283.53    1125.835000
4285.16    1358.281000
4286.80    1431.987000
4288.43    1521.882000
4290.07    1454.259000
4291.70    1488.683000
4293.33    1495.388000
4294.97    1372.809000
4296.60    1320.531000
4298.24    1245.877000
4299.87    1450.594000
4301.50    1465.955000
4303.14    1348.717000
4304.77    1258.570000
4306.40    1301.908000
4308.04    1478.181000
4309.67    1497.930000
4311.31    1307.923000
4312.94    1500.425000
4314.57    1419.747000
4316.21    1336.400000
4317.84    1431.234000
4319.48    1370.966000
4321.11    1589.927000
4322.74    1532.239000
4324.38    1384.453000
4326.01    1403.943000
4327.65    1384.879000
4329.28    1324.058000
4330.91    1527.315000
4332.55    1541.216000
4334.18    1545.578000
4335.81    1490.438000
4337.45    1598.802000
4339.08    1637.641000
4340.72    1606.066000
4342.35    1710.227000
4343.98    1441.643000
4345.62    1346.871000
4347.25    1333.533000
4348.89    1454.217000
4350.52    1528.858000
4352.15    1512.964000
4353.79    1500.031000
4355.42    1368.950000
4357.05    1192.657000
4358.69    1219.376000
4360.32    1231.897000
4361.96    1390.965000
4363.59    1474.099000
4365.22    1464.204000
4366.86    1566.267000
4368.49    1388.849000
4370.12    1587.906000
4371.76    1624.222000
4373.39    1645.009000
4375.03    1624.438000
4376.66    1651.827000
4378.29    1702.125000
4379.93    1621.133000
4381.56    1408.005000
4383.20    1514.169000
4384.83    1419.459000
4386.46    1427.177000
4388.10    1402.305000
4389.73    1495.180000
4391.36    1560.386000
4393.00    1713.149000
4394.63    1780.298000
4396.27    1834.455000
4397.90    1891.796000
4399.53    1918.963000
4401.17    1526.505000
4402.80    1511.136000
4404.44    1601.338000
4406.07    1259.894000
4407.70    1364.662000
4409.34    1611.115000
4410.97    1458.846000
4412.60    1331.930000
4414.24    1395.941000
4415.87    1217.185000
4417.51    1055.346000
4419.14    1377.616000
4420.77    1624.018000
4422.41    1361.967000
4424.04    1266.364000
4425.68    1395.531000
4427.31    1296.289000
4428.94    1157.891000
4430.58    1170.207000
4432.21    1181.552000
4433.85    1182.666000
4435.48    1019.227000
4437.11    1144.112000
4438.75    1032.889000
4440.38    1082.714000
4442.02    1032.413000
4443.65    1254.562000
4445.28    1207.389000
4446.92    1174.202000
4448.55    1413.097000
4450.18    1750.598000
4451.82    1693.307000
4453.45    1724.952000
4455.09    1697.844000
4456.72    1615.035000
4458.35    1607.415000
4459.99    1569.351000
4461.62    1625.922000
4463.25    1693.960000
4464.89    1824.513000
4466.52    1944.958000
4468.16    1915.966000
4469.79    1811.402000
4471.42    1608.776000
4473.06    1547.367000
4474.69    1624.547000
4476.32    1731.485000
4477.96    1624.469000
4479.59    1636.662000
4481.23    1601.277000
4482.86    1810.694000
4484.49    1934.513000
4486.13    1560.298000
4487.76    1441.621000
4489.40    1740.686000
4491.03    1506.552000
4492.66    1716.415000
4494.30    1774.595000
4495.93    1753.281000
4497.56    1826.151000
4499.20    1723.232000
4500.83    1728.294000
4502.47    1766.660000
4504.10    1779.739000
4505.73    1795.889000
4507.37    1782.038000
4509.00    1589.676000
4510.64    1568.674000
4512.27    1525.780000
4513.90    1851.803000
4515.54    1807.050000
4517.17    1364.409000
4518.81    1353.652000
4520.44    1475.739000
4522.07    1559.941000
4523.71    1708.304000
4525.34    1641.806000
4526.98    1677.530000
4528.61    1780.261000
4530.24    1576.660000
4531.88    1706.162000
4533.51    1916.649000
4535.14    1675.444000
4536.78    1666.835000
4538.41    1642.711000
4540.05    1625.617000
4541.68    1372.221000
4543.31    1513.811000
4544.95    1902.021000
4546.58    2065.532000
4548.22    2004.316000
4549.85    1889.568000
4551.48    1827.006000
4553.12    1701.485000
4554.75    1875.439000
4556.38    1976.743000
4558.02    1753.364000
4559.65    1955.495000
4561.29    1860.988000
4562.92    1900.614000
4564.55    1863.681000
4566.19    1802.034000
4567.82    1669.236000
4569.45    1838.617000
4571.09    1698.206000
4572.72    1749.252000
4574.36    2194.101000
4575.99    2051.538000
4577.62    2082.609000
4579.26    2097.948000
4580.89    1932.240000
4582.52    1918.986000
4584.16    2207.482000
4585.79    2103.260000
4587.43    1937.708000
4589.06    2020.994000
4590.69    2011.707000
4592.33    1732.155000
4593.96    1708.329000
4595.60    1688.733000
4597.23    1677.646000
4598.86    1680.055000
4600.50    1723.584000
4602.13    1889.915000
4603.77    1804.676000
4605.40    1757.014000
4607.03    1848.117000
4608.67    2034.272000
4610.30    2049.111000
4611.94    1931.536000
4613.57    2142.634000
4615.20    2059.149000
4616.84    2040.670000
4618.47    1935.374000
4620.10    2017.727000
4621.74    2099.174000
4623.37    1995.150000
4625.01    1938.089000
4626.64    2007.728000
4628.27    1824.499000
4629.91    1916.068000
4631.54    2135.000000
4633.18    2078.576000
4634.81    1932.724000
4636.44    2054.316000
4638.08    2173.417000
4639.71    2070.487000
4641.34    2107.785000
4642.98    2143.687000
4644.61    2360.739000
4646.25    2335.259000
4647.88    2478.628000
4649.51    2244.285000
4651.15    2064.547000
4652.78    2280.590000
4654.41    2243.444000
4656.05    2242.708000
4657.68    2117.349000
4659.32    2092.126000
4660.95    2114.823000
4662.58    2181.822000
4664.22    2182.422000
4665.85    2023.146000
4667.49    1728.767000
4669.12    1787.998000
4670.75    1920.040000
4672.39    1897.786000
4674.02    1886.716000
4675.65    1820.597000
4677.29    2097.624000
4678.92    1985.627000
4680.56    2102.244000
4682.19    2051.216000
4683.82    1873.262000
4685.46    1783.336000
4687.09    1911.797000
4688.73    2228.385000
4690.36    2121.929000
4691.99    1981.261000
4693.63    1896.655000
4695.26    2002.053000
4696.90    2104.601000
4698.53    2359.753000
4700.16    2221.575000
4701.80    2259.633000
4703.43    2190.775000
4705.06    2204.087000
4706.70    2098.373000
4708.33    2002.248000
4709.97    2155.796000
4711.60    2244.593000
4713.23    2186.125000
4714.87    2331.684000
4716.50    2284.034000
4718.14    2297.811000
4719.77    2065.143000
4721.40    2048.465000
4723.04    2062.056000
4724.67    2027.542000
4726.30    2025.592000
4727.94    2057.097000
4729.57    2063.933000
4731.21    2289.297000
4732.84    2044.410000
4734.47    2047.600000
4736.11    1845.536000
4737.74    1883.054000
4739.38    2118.157000
4741.01    2036.191000
4742.64    2081.419000
4744.28    2053.361000
4745.91    1939.861000
4747.54    2142.241000
4749.18    2256.897000
4750.81    2216.295000
4752.45    2442.372000
4754.08    2356.014000
4755.71    2302.039000
4757.35    2134.314000
4758.98    2314.165000
4760.61    2381.380000
4762.25    2282.864000
4763.88    2235.538000
4765.52    2395.750000
4767.15    2226.983000
4768.78    2190.921000
4770.42    2310.459000
4772.05    2281.058000
4773.69    2511.377000
4775.32    2162.505000
4776.95    2083.453000
4778.59    2288.622000
4780.22    2220.879000
4781.85    1910.880000
4783.49    2216.815000
4785.12    2122.397000
4786.76    1939.229000
4788.39    1900.649000
4790.02    1949.041000
4791.66    1940.772000
4793.29    2001.343000
4794.93    2000.680000
4796.56    2179.992000
4798.19    1999.787000
4799.83    2089.021000
4801.46    2211.530000
4803.10    2305.368000
4804.73    2236.204000
4806.36    2103.058000
4808.00    2288.961000
4809.63    1931.816000
4811.26    1825.385000
4812.90    1824.652000
4814.53    1832.788000
4816.17    1934.394000
4817.80    1881.477000
4819.43    1883.391000
4821.07    2146.531000
4822.70    2129.760000
4824.34    1994.746000
4825.97    2128.865000
4827.60    2026.947000
4829.24    2143.924000
4830.87    2184.033000
4832.50    2311.103000
4834.14    2255.397000
4835.77    2005.632000
4837.41    1977.727000
4839.04    2168.873000
4840.67    2270.455000
4842.31    2044.475000
4843.94    2167.584000
4845.57    1982.078000
4847.21    2035.088000
4848.84    2247.810000
4850.48    2095.432000
4852.11    2016.531000
4853.74    2052.011000
4855.38    2183.523000
4857.01    2135.179000
4858.65    2112.576000
4860.28    1986.306000
4861.91    2126.074000
4863.55    2230.134000
4865.18    2157.191000
4866.81    2407.875000
4868.45    2297.294000
4870.08    2309.265000
4871.72    2052.994000
4873.35    2302.842000
4874.98    2020.017000
4876.62    2174.000000
4878.25    2150.058000
4879.89    2362.905000
4881.52    2213.449000
4883.15    2010.057000
4884.79    2014.134000
4886.42    2443.828000
4888.06    2086.201000
4889.69    2146.536000
4891.32    2330.231000
4892.96    2129.205000
4894.59    2342.590000
4896.23    2242.900000
4897.86    2212.652000
4899.49    2244.817000
4901.13    2312.489000
4902.76    1999.447000
4904.39    2035.392000
4906.03    2346.148000
4907.66    2137.550000
4909.30    2113.735000
4910.93    2233.619000
4912.56    2130.114000
4914.20    1935.011000
4915.83    2213.725000
4917.46    2259.071000
4919.10    2172.901000
4920.73    2280.469000
4922.37    2199.701000
4924.00    2235.649000
4925.63    2252.903000
4927.27    2320.633000
4928.90    2273.842000
4930.53    2124.569000
4932.17    2122.052000
4933.80    2006.265000
4935.44    2037.088000
4937.07    2050.852000
4938.70    2276.908000
4940.34    2211.832000
4941.97    2295.889000
4943.61    2301.781000
4945.24    2299.452000
4946.87    2498.513000
4948.51    2252.537000
4950.14    2216.198000
4951.77    2308.087000
4953.41    2309.396000
4955.04    2343.157000
4956.68    2202.470000
4958.31    2416.870000
4959.94    2275.729000
4961.58    2146.051000
4963.21    2204.859000
4964.85    2489.235000
4966.48    2394.863000
4968.11    2121.514000
4969.75    2301.621000
4971.38    2197.305000
4973.02    2177.763000
4974.65    2231.949000
4976.28    2304.398000
4977.92    2240.022000
4979.55    2118.901000
4981.19    2237.313000
4982.82    2238.200000
4984.45    2204.994000
4986.09    2117.010000
4987.72    2141.951000
4989.35    2085.741000
4990.99    1971.266000
4992.62    2044.320000
4994.26    2359.180000
4995.89    2363.011000
4997.52    2085.606000
4999.16    1973.711000
5000.79    2115.566000
5002.43    2326.308000
5004.06    2223.351000
5005.69    2003.414000
5007.33    2151.080000
5008.96    2087.296000
5010.59    1983.068000
5012.23    1928.153000
5013.86    1852.502000
5015.50    1936.263000
5017.13    2070.939000
5018.76    2001.824000
5020.40    1920.811000
5022.03    2136.653000
5023.66    2072.242000
5025.30    1862.882000
5026.93    2021.040000
5028.57    1948.496000
5030.20    1874.413000
5031.83    2105.999000
5033.47    2073.689000
5035.10    1912.038000
5036.73    1789.467000
5038.37    1977.000000
5040.00    1958.696000
5041.64    1995.540000
5043.27    2130.411000
5044.90    2204.173000
5046.54    2153.995000
5048.17    2200.260000
5049.81    2241.901000
5051.44    2288.665000
5053.07    2176.706000
5054.71    2002.388000
5056.34    2176.208000
5057.98    2254.891000
5059.61    2222.187000
5061.24    2215.562000
5062.88    2232.472000
5064.51    2102.777000
5066.15    2079.991000
5067.78    1989.784000
5069.41    2141.773000
5071.05    2159.999000
5072.68    2038.604000
5074.31    2118.486000
5075.95    2087.214000
5077.58    2179.954000
5079.22    2115.452000
5080.85    2282.265000
5082.48    2342.023000
5084.12    2240.391000
5085.75    2136.006000
5087.39    2162.593000
5089.02    2286.017000
5090.65    2211.387000
5092.29    2224.893000
5093.92    2225.694000
5095.55    2239.543000
5097.19    2290.272000
5098.82    2195.931000
5100.46    2244.871000
5102.09    2237.841000
5103.72    2314.609000
5105.36    2250.966000
5106.99    2161.371000
5108.62    2256.153000
5110.26    2200.355000
5111.89    2118.211000
5113.53    2106.571000
5115.16    2261.482000
5116.79    2348.521000
5118.43    2115.749000
5120.06    2216.951000
5121.70    2057.325000
5123.33    2075.367000
5124.96    2277.829000
5126.60    2225.205000
5128.23    2231.089000
5129.86    2089.590000
5131.50    1959.353000
5133.13    1989.298000
5134.77    1860.346000
5136.40    1859.812000
5138.03    2009.447000
5139.67    2022.437000
5141.30    2063.303000
5142.94    2161.688000
5144.57    2130.820000
5146.20    2018.240000
5147.84    2035.677000
5149.47    1955.917000
5151.10    2178.242000
5152.74    2108.749000
5154.37    2051.810000
5156.01    2028.175000
5157.64    2134.622000
5159.27    2061.675000
5160.91    2070.181000
5162.54    2116.656000
5164.18    2127.838000
5165.81    2041.183000
5167.44    2080.147000
5169.08    1978.875000
5170.71    2008.958000
5172.35    1999.338000
5173.98    2024.462000
5175.61    1867.714000
5177.25    2023.878000
5178.88    1936.186000
5180.51    1888.603000
5182.15    1983.212000
5183.78    2256.172000
5185.42    2277.648000
5187.05    2042.382000
5188.68    2024.975000
5190.32    1999.528000
5191.95    2060.755000
5193.59    2081.627000
5195.22    1865.149000
5196.85    2260.781000
5198.49    1893.375000
5200.12    1841.917000
5201.75    2093.564000
5203.39    2220.654000
5205.02    2060.676000
5206.66    1868.283000
5208.29    2123.196000
5209.92    2120.343000
5211.56    2177.190000
5213.19    2126.471000
5214.82    2280.131000
5216.46    2303.691000
5218.09    2264.317000
5219.73    2131.564000
5221.36    2170.204000
5222.99    2058.021000
5224.63    2002.415000
5226.26    1989.717000
5227.90    2006.654000
5229.53    2269.778000
5231.16    2142.885000
5232.80    2002.997000
5234.43    2104.232000
5236.06    2007.135000
5237.70    1890.089000
5239.33    1753.239000
5240.97    1925.012000
5242.60    1830.558000
5244.23    1901.744000
5245.87    2064.303000
5247.50    2016.570000
5249.14    2137.592000
5250.77    2032.142000
5252.40    2094.865000
5254.04    1908.050000
5255.67    2042.190000
5257.31    1888.371000
5258.94    2034.800000
5260.57    1966.906000
5262.21    2004.797000
5263.84    2021.448000
5265.48    1996.823000
5267.11    1936.759000
5268.74    1923.326000
5270.38    2077.624000
5272.01    2087.672000
5273.64    2040.285000
5275.28    2124.198000
5276.91    2094.066000
5278.55    1974.363000
5280.18    1941.021000
5281.81    1868.305000
5283.45    1814.125000
5285.08    2040.600000
5286.71    2018.171000
5288.35    1960.131000
5289.98    2094.922000
5291.62    2069.586000
5293.25    2139.096000
5294.88    2152.460000
5296.52    1989.870000
5298.15    1973.822000
5299.78    1833.112000
5301.42    1877.839000
5303.05    1985.718000
5304.69    1915.608000
5306.32    1857.675000
5307.95    1937.952000
5309.59    1911.889000
5311.22    1753.753000
5312.86    1740.161000
5314.49    1806.412000
5316.12    1786.687000
5317.76    1835.976000
5319.39    2050.772000
5321.02    1891.758000
5322.66    1718.752000
5324.29    1662.490000
5325.93    1693.657000
5327.56    1648.189000
5329.19    1597.891000
5330.83    1507.234000
5332.46    1465.105000
5334.10    1599.042000
5335.73    1714.846000
5337.36    1763.591000
5339.00    1691.268000
5340.63    1735.401000
5342.27    1523.372000
5343.90    1655.006000
5345.53    1765.278000
5347.17    1884.130000
5348.80    1796.055000
5350.44    1764.430000
5352.07    2041.796000
5353.70    2041.463000
