#Wavelength     Flux
#[Angstrom]   [Counts]
3923.59     0.000000
3925.22     0.000000
3926.84     0.000000
3928.46     0.000000
3930.09     0.000000
3931.71     0.000000
3933.34     0.000000
3934.96     0.000000
3936.58     0.000000
3938.21    -350.547400
3939.83    2132.647000
3941.46    1283.941000
3943.08    648.477900
3944.70    501.276400
3946.33    572.173100
3947.95    471.911900
3949.58    499.129900
3951.20    454.403300
3952.82    304.630200
3954.45    411.167900
3956.07    368.527800
3957.70    476.426900
3959.32    448.079700
3960.94    495.893900
3962.57    655.888400
3964.19    487.960800
3965.82    475.543500
3967.44    617.495400
3969.06    771.581900
3970.69    686.196400
3972.31    954.519200
3973.94    681.138700
3975.56    496.301800
3977.18    653.366800
3978.81    641.153300
3980.43    577.552600
3982.06    599.101400
3983.68    593.701400
3985.30    451.693100
3986.93    585.959700
3988.55    740.615700
3990.18    797.383100
3991.80    738.866200
3993.43    662.058600
3995.05    567.299800
3996.67    616.247900
3998.30    672.989900
3999.92    553.759900
4001.55    661.264100
4003.17    676.177300
4004.79    567.941800
4006.42    618.855200
4008.04    584.134000
4009.67    534.691200
4011.29    532.759300
4012.91    444.791100
4014.54    422.412200
4016.16    512.505900
4017.79    738.619800
4019.41    533.336100
4021.03    432.233800
4022.66    647.905900
4024.28    688.510300
4025.91    609.366000
4027.53    550.707500
4029.15    569.243500
4030.78    531.897300
4032.40    688.417800
4034.03    591.020300
4035.65    636.392000
4037.27    788.458600
4038.90    671.136000
4040.52    737.935000
4042.15    559.051800
4043.77    525.621600
4045.39    742.868900
4047.02    778.996200
4048.64    565.671300
4050.27    640.321700
4051.89    573.733800
4053.51    335.973400
4055.14    302.001200
4056.76    526.312100
4058.39    545.649000
4060.01    498.944700
4061.64    536.935900
4063.26    427.454200
4064.88    636.696500
4066.51    732.557100
4068.13    714.606300
4069.76    745.258900
4071.38    839.322900
4073.00    572.245700
4074.63    581.448600
4076.25    702.260000
4077.88    750.067900
4079.50    665.552200
4081.12    612.554000
4082.75    668.708600
4084.37    556.926900
4086.00    526.423300
4087.62    430.912200
4089.24    460.862600
4090.87    439.586200
4092.49    419.924100
4094.12    403.059000
4095.74    365.432400
4097.36    553.002100
4098.99    520.882400
4100.61    546.420600
4102.24    521.843600
4103.86    628.590800
4105.48    729.842300
4107.11    705.305900
4108.73    819.249000
4110.36    738.510100
4111.98    798.042400
4113.60    767.108800
4115.23    839.937000
4116.85    657.895500
4118.48    902.207800
4120.10    833.273900
4121.73    827.276200
4123.35    921.100600
4124.97    903.575200
4126.60    857.461900
4128.22    889.770600
4129.85    1027.792000
4131.47    754.949300
4133.09    671.645000
4134.72    755.203800
4136.34    804.630500
4137.97    1005.425000
4139.59    958.539000
4141.21    745.173600
4142.84    818.670500
4144.46    930.223500
4146.09    777.028800
4147.71    809.738500
4149.33    787.078400
4150.96    732.874000
4152.58    831.445300
4154.21    899.671400
4155.83    894.151400
4157.45    822.971100
4159.08    810.444000
4160.70    661.486200
4162.33    787.865400
4163.95    741.534900
4165.57    904.434900
4167.20    978.805100
4168.82    995.367900
4170.45    623.235300
4172.07    764.343900
4173.69    867.761000
4175.32    828.968400
4176.94    942.405000
4178.57    801.382800
4180.19    817.966100
4181.81    680.789400
4183.44    850.349400
4185.06    805.042900
4186.69    870.455300
4188.31    657.715300
4189.94    871.090900
4191.56    896.373400
4193.18    820.823500
4194.81    904.744000
4196.43    762.882700
4198.06    700.291400
4199.68    713.623700
4201.30    805.984800
4202.93    787.147000
4204.55    840.114100
4206.18    691.708400
4207.80    838.004600
4209.42    771.744400
4211.05    855.690700
4212.67    702.458600
4214.30    868.078400
4215.92    920.556900
4217.54    963.059500
4219.17    941.284000
4220.79    898.992100
4222.41    855.677500
4224.04    935.506900
4225.66    915.648400
4227.29    642.864700
4228.91    693.684800
4230.54    793.453900
4232.16    616.142800
4233.78    724.340600
4235.41    683.337200
4237.03    775.507800
4238.66    809.589200
4240.28    893.794500
4241.90    927.296100
4243.53    915.641700
4245.15    874.375500
4246.78    810.139300
4248.40    933.480700
4250.02    890.748300
4251.65    834.507000
4253.27    863.119000
4254.90    941.085300
4256.52    967.084800
4258.14    935.074300
4259.77    726.733800
4261.39    597.497100
4263.02    644.474900
4264.64    923.309400
4266.26    984.487600
4267.89    913.136100
4269.51    750.221600
4271.14    878.144500
4272.76    914.971700
4274.39    769.814900
4276.01    883.266400
4277.63    889.151600
4279.26    767.244300
4280.88    836.464200
4282.51    684.803600
4284.13    760.805200
4285.75    977.809700
4287.38    908.124900
4289.00    848.646500
4290.62    831.084000
4292.25    843.057500
4293.87    894.688400
4295.50    957.572800
4297.12    880.814300
4298.74    832.912500
4300.37    771.300200
4301.99    784.072800
4303.62    882.216200
4305.24    843.078700
4306.86    847.021700
4308.49    901.535000
4310.11    838.356300
4311.74    859.927400
4313.36    933.135900
4314.99    887.529500
4316.61    742.494800
4318.23    902.258900
4319.86    832.700900
4321.48    849.267900
4323.11    964.650500
4324.73    1019.978000
4326.35    1002.627000
4327.98    880.953700
4329.60    835.612600
4331.23    758.505600
4332.85    883.493700
4334.47    928.635900
4336.10    971.629700
4337.72    930.944500
4339.35    781.697400
4340.97    913.728800
4342.59    975.845600
4344.22    872.432500
4345.84    795.259700
4347.47    867.426400
4349.09    990.546000
4350.71    971.737200
4352.34    935.579200
4353.96    989.286800
4355.59    934.358600
4357.21    828.594800
4358.84    781.205300
4360.46    715.268900
4362.08    841.346900
4363.71    941.952700
4365.33    912.376400
4366.95    855.914200
4368.58    1037.798000
4370.20    978.569900
4371.83    903.373700
4373.45    931.934100
4375.07    932.619400
4376.70    997.147900
4378.32    945.328300
4379.95    1013.121000
4381.57    969.073300
4383.19    919.316800
4384.82    837.482700
4386.44    877.351400
4388.07    848.502500
4389.69    824.150300
4391.31    771.629800
4392.94    776.966300
4394.56    891.071500
4396.19    964.934300
4397.81    941.652700
4399.44    919.754800
4401.06    958.717200
4402.68    910.949600
4404.31    853.257900
4405.93    917.291600
4407.56    744.833500
4409.18    792.187300
4410.80    752.951700
4412.43    924.219000
4414.05    832.619800
4415.68    826.235400
4417.30    863.687600
4418.92    952.793900
4420.55    788.689100
4422.17    848.160000
4423.80    731.009800
4425.42    884.667700
4427.04    757.390100
4428.67    945.916700
4430.29    835.337000
4431.92    924.184000
4433.54    812.092500
4435.16    800.899700
4436.79    836.245400
4438.41    695.366900
4440.04    615.719500
4441.66    785.071700
4443.28    674.533300
4444.91    693.894400
4446.53    637.476500
4448.16    584.186700
4449.78    783.049300
4451.40    1001.030000
4453.03    987.279300
4454.65    946.117500
4456.28    898.061800
4457.90    1116.873000
4459.52    922.155400
4461.15    830.612900
4462.77    785.376200
4464.40    939.101800
4466.02    1055.018000
4467.65    830.906900
4469.27    1041.509000
4470.89    986.775500
4472.52    924.085900
4474.14    908.137500
4475.77    894.366300
4477.39    867.475600
4479.01    946.411300
4480.64    846.368000
4482.26    865.183200
4483.89    937.659800
4485.51    956.577400
4487.13    727.074400
4488.76    803.953900
4490.38    908.555200
4492.01    861.659100
4493.63    816.507900
4495.25    912.092200
4496.88    878.340100
4498.50    1045.191000
4500.13    940.870800
4501.75    1076.820000
4503.38    990.791400
4505.00    946.417500
4506.62    872.848300
4508.25    977.424000
4509.87    1009.195000
4511.49    933.542200
4513.12    969.741100
4514.74    1001.136000
4516.37    925.055300
4517.99    896.943300
4519.61    940.929600
4521.24    878.150800
4522.86    698.367700
4524.49    742.858600
4526.11    789.722200
4527.73    960.134900
4529.36    900.211600
4530.98    853.565200
4532.61    950.126200
4534.23    1072.215000
4535.85    973.247400
4537.48    990.602000
4539.10    1082.254000
4540.73    983.227500
4542.35    926.837000
4543.98    863.010100
4545.60    1015.373000
4547.22    985.434400
4548.85    1106.031000
4550.47    1000.144000
4552.10    941.554400
4553.72    1019.704000
4555.34    939.293800
4556.97    993.442900
4558.59    997.542500
4560.22    1011.876000
4561.84    1107.957000
4563.46    1001.435000
4565.09    1062.029000
4566.71    1070.625000
4568.34    984.963300
4569.96    982.628800
4571.58    963.771700
4573.21    970.798600
4574.83    1011.704000
4576.46    1065.827000
4578.08    1120.636000
4579.70    1067.325000
4581.33    1039.908000
4582.95    1132.343000
4584.58    1200.253000
4586.20    1010.071000
4587.82    1078.082000
4589.45    1205.857000
4591.07    1170.947000
4592.70    1088.730000
4594.32    967.891300
4595.94    1063.247000
4597.57    1023.967000
4599.19    974.597000
4600.82    1009.685000
4602.44    1052.885000
4604.06    1048.402000
4605.69    925.714800
4607.31    1043.264000
4608.94    1043.936000
4610.56    981.487500
4612.19    1055.393000
4613.81    1042.413000
4615.43    1142.874000
4617.06    1261.930000
4618.68    1122.426000
4620.31    1094.288000
4621.93    1159.153000
4623.55    1096.184000
4625.18    1103.820000
4626.80    1181.111000
4628.43    1119.680000
4630.05    1147.667000
4631.67    1139.959000
4633.30    1079.343000
4634.92    1114.401000
4636.55    1151.430000
4638.17    1138.290000
4639.79    1074.741000
4641.42    1061.625000
4643.04    1152.244000
4644.67    1201.808000
4646.29    1147.652000
4647.91    1195.090000
4649.54    1226.156000
4651.16    1231.618000
4652.79    1192.802000
4654.41    1221.166000
4656.03    1251.393000
4657.66    1239.906000
4659.28    1166.846000
4660.91    1118.216000
4662.53    1171.290000
4664.15    1253.285000
4665.78    1190.280000
4667.40    1131.558000
4669.03    1054.219000
4670.65    949.037600
4672.27    961.356000
4673.90    1072.010000
4675.52    1061.889000
4677.15    978.113500
4678.77    1086.833000
4680.40    1134.963000
4682.02    1161.149000
4683.64    1034.964000
4685.27    1000.760000
4686.89    1167.193000
4688.52    1053.292000
4690.14    1069.543000
4691.76    1138.578000
4693.39    1194.856000
4695.01    1130.094000
4696.64    1015.150000
4698.26    1031.287000
4699.88    1037.703000
4701.51    1051.387000
4703.13    1080.608000
4704.76    1243.086000
4706.38    1257.729000
4708.00    1085.744000
4709.63    1050.183000
4711.25    991.530900
4712.88    1071.010000
4714.50    1145.743000
4716.12    1115.543000
4717.75    1174.484000
4719.37    1206.214000
4721.00    1145.839000
4722.62    1091.777000
4724.24    1105.153000
4725.87    1073.297000
4727.49    1099.383000
4729.12    1171.999000
4730.74    1168.545000
4732.36    1178.658000
4733.99    1192.918000
4735.61    1286.418000
4737.24    1103.918000
4738.86    1035.126000
4740.48    1164.510000
4742.11    1182.102000
4743.73    1163.126000
4745.36    1211.286000
4746.98    1024.849000
4748.60    1136.035000
4750.23    1107.326000
4751.85    1190.089000
4753.48    1144.425000
4755.10    1271.215000
4756.73    1224.404000
4758.35    1047.179000
4759.97    1133.301000
4761.60    1209.196000
4763.22    1105.373000
4764.85    1200.572000
4766.47    1219.387000
4768.09    1094.092000
4769.72    1244.277000
4771.34    1322.884000
4772.97    1157.781000
4774.59    1160.774000
4776.21    1246.794000
4777.84    1085.452000
4779.46    1190.404000
4781.09    1074.278000
4782.71    1143.126000
4784.33    1092.860000
4785.96    1120.741000
4787.58    1161.294000
4789.21    1243.285000
4790.83    1031.017000
4792.45    1006.820000
4794.08    1119.790000
4795.70    1037.763000
4797.33    1203.890000
4798.95    1185.525000
4800.57    1140.496000
4802.20    1153.996000
4803.82    1059.487000
4805.45    1129.392000
4807.07    1180.668000
4808.69    1215.737000
4810.32    1138.529000
4811.94    1025.994000
4813.57    1113.697000
4815.19    1086.992000
4816.81    1043.837000
4818.44    1133.678000
4820.06    1174.984000
4821.69    1178.519000
4823.31    1193.290000
4824.94    1144.489000
4826.56    1232.918000
4828.18    1201.052000
4829.81    1200.615000
4831.43    1036.511000
4833.06    1128.892000
4834.68    1176.342000
4836.30    1308.962000
4837.93    1052.001000
4839.55    989.460800
4841.18    1097.770000
4842.80    1108.756000
4844.42    1242.421000
4846.05    1162.500000
4847.67    1073.893000
4849.30    1065.173000
4850.92    1064.403000
4852.54    1174.084000
4854.17    1106.308000
4855.79    1037.389000
4857.42    1007.638000
4859.04    1107.625000
4860.66    1063.968000
4862.29    1010.362000
4863.91    1036.192000
4865.54    1072.923000
4867.16    1215.141000
4868.78    1235.482000
4870.41    1176.597000
4872.03    1236.776000
4873.66    1228.953000
4875.28    1062.190000
4876.90    1109.725000
4878.53    1069.040000
4880.15    985.527800
4881.78    1036.352000
4883.40    1198.906000
4885.02    1014.978000
4886.65    1089.798000
4888.27    1079.448000
4889.90    1145.969000
4891.52    1173.594000
4893.15    1206.013000
4894.77    1223.374000
4896.39    1217.022000
4898.02    1175.454000
4899.64    1144.816000
4901.27    1074.388000
4902.89    1223.629000
4904.51    1180.521000
4906.14    1161.488000
4907.76    1064.555000
4909.39    1128.215000
4911.01    1104.495000
4912.63    1199.738000
4914.26    1215.429000
4915.88    1087.074000
4917.51    1132.444000
4919.13    1080.033000
4920.75    1115.185000
4922.38    1126.407000
4924.00    1161.923000
4925.63    1224.040000
4927.25    1242.882000
4928.87    1265.348000
4930.50    1179.582000
4932.12    1252.678000
4933.75    1175.119000
4935.37    1146.818000
4936.99    1167.261000
4938.62    1213.566000
4940.24    1153.596000
4941.87    1202.840000
4943.49    1171.116000
4945.11    1162.893000
4946.74    1200.475000
4948.36    1141.610000
4949.99    1277.296000
4951.61    1070.281000
4953.23    1132.340000
4954.86    1204.912000
4956.48    1158.867000
4958.11    1185.308000
4959.73    1087.605000
4961.35    1212.638000
4962.98    1161.213000
4964.60    1239.196000
4966.23    1262.139000
4967.85    1222.539000
4969.48    1300.869000
4971.10    1205.836000
4972.72    1282.337000
4974.35    1150.685000
4975.97    1078.174000
4977.60    1196.309000
4979.22    1089.762000
4980.84    1165.638000
4982.47    1115.855000
4984.09    1123.634000
4985.72    1155.819000
4987.34    1173.746000
4988.96    1093.686000
4990.59    1062.332000
4992.21    1217.784000
4993.84    1193.551000
4995.46    1222.992000
4997.08    1115.005000
4998.71    1165.477000
5000.33    1235.609000
5001.96    1262.930000
5003.58    1095.212000
5005.20    1029.281000
5006.83    1165.425000
5008.45    989.183200
5010.08    1109.014000
5011.70    1167.207000
5013.32    1268.828000
5014.95    1241.570000
5016.57    1134.335000
5018.20    1160.713000
5019.82    1029.372000
5021.44    1045.831000
5023.07    1125.780000
5024.69    996.315500
5026.32    1062.376000
5027.94    1002.229000
5029.56    991.497300
5031.19    1062.884000
5032.81    1143.161000
5034.44    1075.630000
5036.06    1115.844000
5037.69    1155.850000
5039.31    1058.355000
5040.93    1044.010000
5042.56    1159.346000
5044.18    1020.627000
5045.81    1028.052000
5047.43    1090.717000
5049.05    1136.460000
5050.68    1270.783000
5052.30    1284.888000
5053.93    1146.798000
5055.55    1161.268000
5057.17    1191.800000
5058.80    1201.029000
5060.42    1065.045000
5062.05    1125.005000
5063.67    1109.889000
5065.29    1098.437000
5066.92    1211.397000
5068.54    1272.536000
5070.17    1230.698000
5071.79    1127.673000
5073.41    1186.542000
5075.04    1087.719000
5076.66    1072.420000
5078.29    1203.231000
5079.91    1110.778000
5081.53    1063.665000
5083.16    1319.253000
5084.78    1249.837000
5086.41    1163.551000
5088.03    1219.843000
5089.65    1152.067000
5091.28    1119.805000
5092.90    1227.355000
5094.53    1157.726000
5096.15    1194.580000
5097.77    1177.522000
5099.40    1209.249000
5101.02    1252.006000
5102.65    1278.392000
5104.27    1309.723000
5105.90    1233.952000
5107.52    1205.435000
5109.14    1291.766000
5110.77    1191.346000
5112.39    1147.930000
5114.02    1148.053000
5115.64    1221.177000
5117.26    1266.342000
5118.89    1211.559000
5120.51    1128.022000
5122.14    1151.716000
5123.76    1172.505000
5125.38    1221.395000
5127.01    1265.347000
5128.63    1204.162000
5130.26    1208.619000
5131.88    1148.682000
5133.50    1255.323000
5135.13    1130.944000
5136.75    1077.712000
5138.38    1030.897000
5140.00    978.303700
5141.62    1101.094000
5143.25    1039.131000
5144.87    1174.610000
5146.50    1154.596000
5148.12    1259.504000
5149.74    1171.689000
5151.37    1145.698000
5152.99    1089.683000
5154.62    1129.217000
5156.24    1220.820000
5157.86    1042.671000
5159.49    1109.369000
5161.11    1032.623000
5162.74    1166.837000
5164.36    1281.492000
5165.98    1199.702000
5167.61    1069.014000
5169.23    1085.998000
5170.86    1193.829000
5172.48    1032.990000
5174.10    1123.827000
5175.73    1083.521000
5177.35    1049.047000
5178.98    1118.126000
5180.60    1071.675000
5182.23    1147.290000
5183.85    1135.908000
5185.47    1049.528000
5187.10    1141.036000
5188.72    1175.137000
5190.35    1154.551000
5191.97    1262.945000
5193.59    1149.851000
5195.22    1109.440000
5196.84    1147.810000
5198.47    1153.996000
5200.09    1179.073000
5201.71    1104.973000
5203.34    1136.851000
5204.96    1243.179000
5206.59    1166.263000
5208.21    1151.354000
5209.83    1205.666000
5211.46    1149.037000
5213.08    1133.017000
5214.71    1218.449000
5216.33    1207.214000
5217.95    1268.970000
5219.58    1150.202000
5221.20    1308.078000
5222.83    1159.782000
5224.45    1171.163000
5226.07    1165.700000
5227.70    1192.366000
5229.32    1165.090000
5230.95    1195.496000
5232.57    1124.067000
5234.19    1171.812000
5235.82    1103.861000
5237.44    1172.890000
5239.07    1158.543000
5240.69    1063.624000
5242.31    1136.633000
5243.94    1101.246000
5245.56    1059.381000
5247.19    1080.410000
5248.81    1113.921000
5250.44    1202.994000
5252.06    1196.279000
5253.68    1247.294000
5255.31    1199.170000
5256.93    1052.260000
5258.56    1114.778000
5260.18    1155.102000
5261.80    1197.002000
5263.43    1061.666000
5265.05    1085.270000
5266.68    1064.573000
5268.30    1201.993000
5269.92    1158.141000
5271.55    1051.074000
5273.17    1141.146000
5274.80    1224.104000
5276.42    1152.072000
5278.04    1254.408000
5279.67    1118.219000
5281.29    1142.581000
5282.91    1154.520000
5284.54    1179.724000
5286.16    1217.562000
5287.79    1109.063000
5289.41    1171.531000
5291.04    1129.832000
5292.66    1135.574000
5294.28    1187.337000
5295.91    1222.462000
5297.53    1084.896000
5299.16    1203.639000
5300.78    1073.925000
5302.40    1088.355000
5304.03    1132.373000
5305.65    1072.198000
5307.28    1195.788000
5308.90    1135.868000
5310.52    1101.721000
5312.15    1077.519000
5313.77    1060.720000
5315.40    1147.056000
5317.02    1174.701000
5318.64    1072.886000
5320.27    1101.076000
5321.89    1217.973000
5323.52    1139.914000
5325.14    1133.740000
5326.76    1082.915000
5328.39    1020.244000
5330.01    1054.723000
5331.64    1058.158000
5333.26    854.278900
5334.89    928.608000
5336.51    942.315600
5338.13    902.601000
5339.76    902.987900
5341.38    958.792700
5343.01    988.343200
5344.63    1002.791000
5346.25    1006.971000
5347.88    1001.245000
5349.50    974.693400
5351.12    976.531700
5352.75    1066.216000
5354.37    1083.891000
5356.00    1122.495000
5357.62    1016.522000
5359.24    1103.800000
