#Wavelength     Flux    Sky Spectrum 
#[Angstrom]   [Counts]     [Counts]
4545.04     2.162961     7.496915
4545.66     1.585003     7.996809
4546.27     8.026928     5.265524
4546.89    11.551600     3.793692
4547.50     5.267174     5.357921
4548.12     2.154838     7.941844
4548.73     1.636503     6.179991
4549.35     3.552351     3.407707
4549.96     8.077936     3.403177
4550.58    10.998434     3.779513
4551.19     8.227495     1.966415
4551.81     6.371389     4.936062
4552.43     5.126541     6.666643
4553.04     5.634015     5.120789
4553.66     7.103852     3.989268
4554.27     6.046734     4.974022
4554.89     4.799980     5.218353
4555.50     7.384957     4.066033
4556.12    12.665533     4.965667
4556.73    11.173160     7.517018
4557.35     1.809433     7.985724
4557.96     3.255205     6.566729
4558.58    13.294509     3.163273
4559.20    11.146673     1.711256
4559.81     2.119689     4.136744
4560.43     3.431248     7.158898
4561.04     7.033541     7.084652
4561.66     3.046240     7.209403
4562.27    -0.904353    10.411484
4562.89    -0.353528    11.751703
4563.50     5.677712     8.296001
4564.12    13.052723     5.103814
4564.73     4.985779     4.600367
4565.35     3.948518     6.769769
4565.96     5.921006     8.593493
4566.58     3.635029     7.323381
4567.20     2.940730     4.983541
4567.81     0.925393     6.569071
4568.43     4.007479     7.992460
4569.04     7.797872     7.458587
4569.66     9.615461     4.824896
4570.27     9.780542     3.100452
4570.89     7.141033     5.797364
4571.50     7.121027     6.201418
4572.12     5.546449     5.924660
4572.73     6.154292     5.932259
4573.35    11.145160     4.424312
4573.97    10.931540     3.013835
4574.58     0.907697     6.499129
4575.20     4.392617     6.200792
4575.81     9.625864     3.922919
4576.43     8.704398     4.713359
4577.04     7.796286     5.828686
4577.66     7.586943     3.072971
4578.27    14.208187     5.920071
4578.89    11.256157    12.379932
4579.50     8.262355    10.109329
4580.12     7.580694     5.021201
4580.74     1.016648     7.973773
4581.35     8.170346     2.605052
4581.97     5.495007     4.376329
4582.58     2.943478     5.896502
4583.20     8.138918     5.409270
4583.81     9.454799     8.428090
4584.43     4.073775     9.971293
4585.04     8.361506     9.495328
4585.66    11.223109     7.002494
4586.27     7.692152     2.822788
4586.89     2.812587     5.142201
4587.51     2.202407    11.962018
4588.12     7.316139     4.806841
4588.74     9.623986     4.809157
4589.35     6.491625     6.451273
4589.97     5.568129     5.944551
4590.58     8.334441     7.560598
4591.20     7.998846     8.997535
4591.81     7.873528     5.453420
4592.43     9.013190     6.046281
4593.04    11.633110     7.226785
4593.66    10.789928     7.192520
4594.27     6.680562     8.059518
4594.89     7.837307     7.130702
4595.51    10.991116     4.471894
4596.12    14.143213     4.116349
4596.74     8.333700     6.222815
4597.35     3.250388     6.648601
4597.97     8.213388     4.954480
4598.58     6.970714     5.904298
4599.20    10.167502     6.000087
4599.81     9.864223     6.331635
4600.43     7.041702     4.738497
4601.04     7.280106     3.071788
4601.66     7.969182     5.089643
4602.28     6.264513     5.837651
4602.89     5.898321     7.203115
4603.51    10.480316     4.797419
4604.12    10.466666     3.043584
4604.74     7.160425     5.599261
4605.35    11.041019     7.003664
4605.97     8.895668     6.826888
4606.58     4.834084     8.418551
4607.20     8.347911     4.712640
4607.81    12.839947     2.402544
4608.43    11.762796     5.094153
4609.05    10.022588     3.994426
4609.66     5.572555     6.783068
4610.28     5.892127     4.987133
4610.89    11.669639     4.760740
4611.51     8.574137     8.227511
4612.12     1.111660     8.689035
4612.74     8.854784     6.032350
4613.35     7.023452     8.317323
4613.97    -2.225203    16.936165
4614.58     2.124512    13.355044
4615.20     7.596471     6.208056
4615.82     1.497528     9.370669
4616.43     4.754904     8.128275
4617.05    10.502626     5.054879
4617.66     9.147082     7.134186
4618.28     4.884566     6.801126
4618.89     6.686059     2.829554
4619.51     8.221079     5.102718
4620.12     1.018547    12.882939
4620.74     8.242281     9.441033
4621.35    10.019845     5.834511
4621.97     9.462971     7.118701
4622.58     9.088393     7.608280
4623.20     8.757092     4.455664
4623.82    14.993509     2.039304
4624.43     9.051168     2.555197
4625.05    10.042758     5.034957
4625.66     8.213023    10.369097
4626.28     3.436674    12.875097
4626.89     5.151978     9.436038
4627.51     5.891248     7.062894
4628.12    10.101707     6.386057
4628.74     5.269813    10.915521
4629.35     7.670387    10.209298
4629.97    11.271380     8.567465
4630.59     5.504714    10.845172
4631.20     7.917336     7.052583
4631.82    10.919570     6.884779
4632.43     9.333874     6.432328
4633.05     6.578609     5.945499
4633.66     6.225229     8.327552
4634.28    10.270605     9.681041
4634.89    14.999941     5.999864
4635.51     9.043351     5.844050
4636.12     8.209517     6.383164
4636.74    13.097454     9.051048
4637.36    12.408041    11.579875
4637.97    10.826000    10.572391
4638.59    18.109777     7.927607
4639.20    16.198263     5.956270
4639.82     8.216159     7.633080
4640.43     4.864491     6.937845
4641.05     7.649689     6.367338
4641.66    12.070357     6.502753
4642.28    15.088125     3.999068
4642.89    15.152129     5.952893
4643.51    14.019477     3.733450
4644.13    14.807101     3.872069
4644.74    13.823175     8.162474
4645.36     6.112089     9.776729
4645.97     0.193963     6.729414
4646.59     9.132295     5.045305
4647.20    12.880875     5.076490
4647.82    13.248355     4.489139
4648.43     8.749274     7.072121
4649.05     9.275054    10.506242
4649.66    18.477634     8.535756
4650.28    14.416251     5.958202
4650.90     9.048145     9.253645
4651.51     6.287342     9.558522
4652.13    13.738018     5.857801
4652.74    16.141819     8.356482
4653.36    10.390362    12.580875
4653.97    17.012985     6.043048
4654.59     9.366731     8.802891
4655.20    16.733917     5.179167
4655.82    12.858942     6.926189
4656.43     4.255497    11.723291
4657.05    10.025181     6.067762
4657.66    10.991570     0.024801
4658.28    11.588226     6.875116
4658.90    14.863050     9.677629
4659.51    12.394832     7.144017
4660.13    12.610443     5.894581
4660.74    13.989861     7.609361
4661.36     7.825130     8.992549
4661.97    11.422371     6.519683
4662.59    14.434040     2.348305
4663.20    10.597040     9.493036
4663.82     6.831740    11.833923
4664.43    13.913152     7.701191
4665.05    21.695265    10.228813
4665.67    12.279434     9.143758
4666.28    13.277763     6.854254
4666.90     6.929347     9.471889
4667.51    12.768549     7.765738
4668.13    18.987532     4.991787
4668.74    11.755996     8.838844
4669.36    18.043802     9.977361
4669.97    17.730892     5.761501
4670.59     5.287045    12.324425
4671.20    11.779382    10.531518
4671.82    18.364012     5.071768
4672.44    11.150073     7.680157
4673.05    11.915710     7.861537
4673.67     8.944895     4.406423
4674.28    13.584423     2.593051
4674.90    14.646876     5.468519
4675.51    11.720027     7.145008
4676.13    11.015744     5.470315
4676.74    12.251185     6.495743
4677.36    13.962074    10.904648
4677.97    14.405661     9.004427
4678.59    17.852238     6.057900
4679.21    10.788057    11.021390
4679.82     5.596178    12.820617
4680.44     9.813862     9.280547
4681.05     2.919663    12.983568
4681.67     1.324495     6.694151
4682.28     7.289186     8.322596
4682.90     9.236236    10.522996
4683.51    10.186259     7.110591
4684.13    13.579483     5.050798
4684.74    14.016732     7.137299
4685.36    14.087089     7.147943
4685.97    12.031946     5.784347
4686.59     9.299099     8.182531
4687.21    20.164347     7.699391
4687.82    26.601131     4.275026
4688.44    13.428501     3.981544
4689.05    11.849915     3.976053
4689.67    16.371840     6.076344
4690.28     9.010496    10.630049
4690.90     6.846287     8.336100
4691.51    11.042460     6.805280
4692.13    14.444299     8.415353
4692.74    19.981169     3.987343
4693.36    13.184018     7.701937
4693.98     8.669468     5.448012
4694.59    11.914604     2.870543
4695.21    17.382843     3.268090
4695.82    16.750822     4.520228
4696.44    11.782957     6.086730
4697.05    12.952284     6.015185
4697.67    11.985571     6.505851
4698.28    14.023914     8.866497
4698.90    14.417581     7.256860
4699.51    12.723167     7.138798
4700.13    12.999413     9.702029
4700.75    11.996271     4.994259
4701.36    10.197047     5.764252
4701.98     9.926227     5.730034
4702.59     9.899729     8.054435
4703.21    10.512775     7.659626
4703.82    12.603638     5.146040
4704.44    12.790646     8.128843
4705.05     9.860098     7.201311
4705.67    15.816483     5.576019
4706.28    20.544748     3.341438
4706.90    17.654297     4.070457
4707.52    12.618133     6.485030
4708.13    10.930953     5.727576
4708.75    11.007320     4.945986
4709.36    10.195032     8.482430
4709.98    10.336144     8.247750
4710.59    16.549875     5.163227
4711.21    17.205927     3.812433
4711.82     9.883446     5.732682
4712.44     7.864520     9.111850
4713.05     6.249058     9.317714
4713.67    17.182837     6.304160
4714.28    19.089485     7.725557
4714.90    14.319915     8.582647
4715.52    14.218472     6.720210
4716.13    17.805361     5.653498
4716.75    23.923588     2.954823
4717.36    19.700409     6.524043
4717.98    14.545407     5.053715
4718.59    14.750816     5.050442
4719.21    16.317665     7.257734
4719.82    17.509295     5.610241
4720.44    22.093773     3.975183
4721.05    24.840357     2.979849
4721.67    14.740274     4.150930
4722.29    13.731367     6.411714
4722.90    20.577749     3.806784
4723.52    21.923256     1.432195
4724.13    20.960552     6.374730
4724.75    20.255331     8.724338
4725.36    16.335661    12.105220
4725.98    18.184189     8.132442
4726.59    16.666233     6.573034
4727.21     7.812881     9.667898
4727.82     7.367375     8.617114
4728.44    18.916769     6.031798
4729.06    16.225557     5.490570
4729.67    12.754230     9.407215
4730.29    14.229119     7.715236
4730.90    11.916508     4.466142
4731.52    11.419010     4.886141
4732.13    17.936495     2.854888
4732.75     9.788183     2.537840
4733.36    11.408023     8.250771
4733.98    25.029942     6.003381
4734.59    26.939194     1.939443
4735.21    19.809122     3.880286
4735.83    19.875753     6.204477
4736.44    17.117279     7.842115
4737.06    16.592392    11.731745
4737.67    19.105412     9.682391
4738.29    20.329653     7.066683
4738.90    22.330143     6.870618
4739.52    23.477726     7.323883
4740.13    17.871271    10.078032
4740.75    17.128859    11.397798
4741.36    24.571972     6.455566
4741.98    19.052717     5.038060
4742.59    17.097336     6.159493
4743.21    25.202282     6.237906
4743.83    19.947548     8.221157
4744.44    11.790487     9.137870
4745.06    22.176687     5.831149
4745.67    19.537836     4.526557
4746.29    16.969042     5.646722
4746.90    19.631054     5.835239
4747.52    17.178513     4.867718
4748.13    21.935394     5.943003
4748.75    23.151880     9.951226
4749.36    22.007271     6.464144
4749.98    18.485001     5.862867
4750.60    14.732839     8.795280
4751.21    15.966293     7.251457
4751.83    18.901686     5.030497
4752.44    12.767886     9.151508
4753.06    10.114250    14.706201
4753.67     9.577149    11.978329
4754.29    11.710473     7.514935
4754.90    16.286873     6.821723
4755.52    20.657368     5.863355
4756.13    23.283154     5.014754
4756.75    14.356922     5.597260
4757.37    15.404263     7.467044
4757.98    15.486197     7.848414
4758.60    20.715353     6.405107
4759.21    27.692684     4.636652
4759.83    11.988059     2.998487
4760.44    16.675499     2.879983
4761.06    17.740616     3.722234
4761.67    13.937132     4.461258
4762.29    18.479580     8.436585
4762.90    24.143238    10.287978
4763.52    22.115078     4.814731
4764.14    27.588919     5.808212
4764.75    26.288666     5.969316
4765.37    22.943817     6.914860
4765.98    18.026566     5.689528
4766.60    19.320835     4.207879
4767.21    24.394676     6.057311
4767.83    14.152882     5.027459
4768.44    21.900196     6.299680
4769.06    23.526844     8.943103
4769.67    22.218275     7.345961
4770.29    19.837986     6.778578
4770.91    15.020831    10.386337
4771.52    19.993906     9.004897
4772.14    21.247967     5.280283
4772.75    19.860279     6.181802
4773.37    21.984295     7.306525
4773.98    27.346622     6.851009
4774.60    26.493425     7.161149
4775.21    18.828854     8.045732
4775.83    21.468452     8.158035
4776.44    22.778927     6.325645
4777.06    19.509293     6.363160
4777.67    20.863100     4.202540
4778.29    22.076727     4.333448
4778.91    18.056379     8.919888
4779.52    21.128901     4.147130
4780.14    14.786437     7.132331
4780.75    18.322674     7.029697
4781.37    19.822124     6.419971
4781.98    19.671082     8.553791
4782.60    26.423889     7.541888
4783.21    24.073330     4.067153
4783.83    24.371460     3.735455
4784.44    27.769663     4.934536
4785.06    29.889238     4.210902
4785.68    29.835215     2.381533
4786.29    28.643505     2.113272
4786.91    24.881861     3.009442
4787.52    17.790943     2.372100
4788.14    16.864176    -0.021435
4788.75    20.374977     2.563218
4789.37    22.539406     8.424264
4789.98    21.510765     9.498399
4790.60    21.165295     5.850407
4791.21    22.766794     5.860637
4791.83    10.818605     6.747554
4792.45    10.510566     7.601704
4793.06    23.646191     8.219036
4793.68    28.548286     7.647687
4794.29    25.203461     5.788295
4794.91    30.887722     4.895334
4795.52    25.773655     7.452842
4796.14    23.018295     7.730195
4796.75    21.407898     6.430484
4797.37    16.319376     5.805371
4797.98    14.045767     6.220147
4798.60    18.589104     7.093931
4799.22    27.251362     3.886482
4799.83    24.159946     8.311634
4800.45    15.373487     8.215642
4801.06    13.437711     7.167860
4801.68    16.229860    12.394464
4802.29    16.956089    10.050904
4802.91    22.757452     7.343833
4803.52    26.403812     6.217451
4804.14    23.453575     5.656830
4804.75    18.006092     4.304007
4805.37    17.694195     4.496112
4805.98    24.112408     6.995253
4806.60    27.462410     3.675331
4807.22    21.232782     1.716353
4807.83    18.812571     3.193611
4808.45    22.903465     3.867922
4809.06    25.044359     2.874317
4809.68    21.744610     4.125597
4810.29    16.265057     7.602452
4810.91    18.069429     8.523416
4811.52    19.146738     6.284698
4812.14    25.786415     4.576664
4812.75    33.320972     5.349019
4813.37    27.589781     5.944815
4813.99    22.080170     4.873573
4814.60    12.951835     7.587553
4815.22    21.867464     6.114419
4815.83    30.046930     3.114749
4816.45    26.604578     4.958131
4817.06    29.316732     6.876670
4817.68    29.639185     4.728646
4818.29    19.715944    11.518428
4818.91    15.486751    10.820416
4819.52    19.001787     4.009690
4820.14    19.106209     6.093098
4820.76    17.356712    11.882112
4821.37    23.000546     5.345549
4821.99    16.658424     7.663683
4822.60    16.122913     9.652187
4823.22    14.485691     8.531508
4823.83     7.357849     9.743010
4824.45     7.368715    10.793410
4825.06    14.962009     7.176156
4825.68    27.277035     7.625953
4826.29    20.559090     7.968424
4826.91    11.134628     8.714683
4827.53    19.418398     8.217665
4828.14    28.905712     6.075099
4828.76    19.570724     8.874986
4829.37    18.603294     7.806420
4829.99    17.533018     5.549481
4830.60    15.525410     8.132314
4831.22    22.796307     9.265450
4831.83    29.525518     5.970484
4832.45    20.130562     8.016771
4833.06    27.633942     5.185520
4833.68    23.995129     8.188222
4834.29    23.870926     9.105727
4834.91    28.403364     7.183263
4835.53    21.510733     8.950367
4836.14    21.155737     6.179623
4836.76    16.584036     6.193913
4837.37    18.895536     9.628168
4837.99    24.169582     8.046278
4838.60    24.783958     6.845046
4839.22    21.346249     9.798570
4839.83    16.959110     5.083752
4840.45    21.670368     8.984267
4841.06    22.798122     8.592906
4841.68    19.230066     7.040251
4842.30    22.290089     7.888720
4842.91    26.500200     7.052992
4843.53    17.986572     8.083828
4844.14    26.465212     5.426979
4844.76    17.169827     6.287378
4845.37    20.236458     5.908223
4845.99    32.857094     4.117614
4846.60    25.236412     6.067585
4847.22    37.344528     5.100854
4847.83    32.186909     5.043197
4848.45    31.750505     4.462953
4849.07    29.505629     7.044607
4849.68    18.795605    10.133531
4850.30    18.314173     7.837171
4850.91    23.707701     6.281059
4851.53    21.645178     3.910543
4852.14    18.448748     6.674857
4852.76    26.597954     9.438425
4853.37    33.705402     7.334140
4853.99    24.593973     6.026599
4854.60    19.724566     7.800984
4855.22    15.804993     7.602297
4855.84    29.276806     5.883647
4856.45    35.351685     4.528557
4857.07    26.439375     5.625918
4857.68    28.956192     7.992451
4858.30    21.607374     5.326724
4858.91    25.484060     5.748861
4859.53    27.542839     4.960492
4860.14    21.557697     7.010535
4860.76    19.164806    10.852433
4861.37    22.934673     6.057305
4861.99    24.619085     5.750215
4862.60    19.028080     6.093108
4863.22    13.567258     6.207544
4863.84    13.581703     7.661941
4864.45    19.318869     7.634914
4865.07    26.891216     4.970579
4865.68    24.269999     8.870861
4866.30    27.728806    10.542574
4866.91    29.059454     6.161049
4867.53    21.166296     4.673614
4868.14    15.959399     8.036026
4868.76    18.851135     5.216031
4869.37    17.831738     5.957610
4869.99    21.509327     9.091572
4870.61    24.064028     6.853517
4871.22    25.250242     2.426561
4871.84    29.979452     3.044099
4872.45    25.375931     4.352923
4873.07    27.547487    10.228745
4873.68    28.620510     8.067834
4874.30    17.973490     7.856257
4874.91    10.408511    13.210391
4875.53    21.040735     8.981994
4876.14    26.363693     7.007762
4876.76    29.342161     7.190893
4877.38    25.577557     6.060840
4877.99    21.864735     4.809814
4878.61    22.655792     6.475855
4879.22    19.002163     9.003428
4879.84    23.022606     6.628741
4880.45    23.079662     6.356961
4881.07    18.991505    10.491171
4881.68    18.490364    13.131950
4882.30    22.392899     9.455591
4882.91    24.307659     4.904237
4883.53    18.782526    10.534491
4884.15    16.546991    15.100614
4884.76    22.235199    11.525659
4885.38    24.005655     6.204998
4885.99    19.050331     6.028624
4886.61    27.282738     7.716246
4887.22    22.978655     9.017845
4887.84    20.367624    12.207631
4888.45    26.023184    11.576154
4889.07    29.356627     6.583457
4889.68    29.175621     6.099914
4890.30    25.141359     2.549401
4890.92    27.812454     3.329747
4891.53    23.633266     6.166605
4892.15    16.574343     9.327819
4892.76    21.359562    11.855966
4893.38    22.287886     7.298551
4893.99    19.826616     9.015843
4894.61    22.957439     9.518978
4895.22    24.327526     7.202338
4895.84    25.504387     7.211965
4896.45    34.975990     8.004221
4897.07    30.751408     6.240061
4897.68    25.013716     6.560924
4898.30    23.739265     6.811366
4898.92    26.302635     5.615029
4899.53    29.005587     4.962134
4900.15    27.863922     5.751065
4900.76    31.979528     8.781707
4901.38    32.263676     6.960145
4901.99    30.929428     4.514282
4902.61    30.465088     5.064785
4903.22    26.939085     5.009169
4903.84    25.996273     6.467661
4904.45    26.246284     9.405227
4905.07    28.950455     9.247277
