#Wavelength     Flux    Sky Spectrum 
#[Angstrom]   [Counts]     [Counts]
4545.04    48.880463     7.758508
4546.27    31.262552    13.365797
4547.50    27.281845    11.793995
4548.73    39.292091    10.211207
4549.96    49.271873    10.341581
4551.19    40.734543     8.108006
4552.43    22.797424    12.618159
4553.66    30.353008    11.689691
4554.89    37.106350    11.640994
4556.12    35.943520    10.825220
4557.35    33.766960     9.483865
4558.58    26.012087    14.988699
4559.81    24.391018    16.409023
4561.04    21.584192    13.638171
4562.28    30.273029    13.863375
4563.51    33.885315    14.680108
4564.74    24.856981    11.453778
4565.97    34.383801     9.045904
4567.20    40.958641     9.586923
4568.43    38.454216    10.972433
4569.66    37.280750    10.294027
4570.89    37.367550    10.757904
4572.12    35.001331    14.306283
4573.36    38.535637    14.233018
4574.59    43.297729    11.088651
4575.82    43.179604    13.562654
4577.05    34.566002    14.255076
4578.28    25.114605    15.785538
4579.51    34.390476    19.518454
4580.74    57.163742     8.653092
4581.97    34.215965    10.438122
4583.21    38.624512    12.443702
4584.44    49.289471    12.653082
4585.67    40.708500    14.041120
4586.90    44.578316    11.640244
4588.13    48.094654     8.941594
4589.36    43.272224    12.544449
4590.59    36.526218    15.937752
4591.82    35.573498    15.149294
4593.05    43.139629    14.020672
4594.29    50.008526    15.067204
4595.52    42.821991    14.998625
4596.75    35.324265    15.178782
4597.98    32.786236    13.726263
4599.21    40.505260    12.848112
4600.44    43.281548    10.708833
4601.67    28.999352     9.565530
4602.90    20.082233    15.061641
4604.14    24.779360     7.991831
4605.37    33.068592    11.170609
4606.60    38.786346    13.225051
4607.83    41.947693     9.147494
4609.06    44.514206    10.400294
4610.29    47.935371    11.050234
4611.52    50.107826     6.543515
4612.75    48.464100     7.423604
4613.98    52.645618    10.658031
4615.22    47.978855    10.548219
4616.45    36.382591    13.774050
4617.68    44.291000    19.896629
4618.91    50.470303     9.785549
4620.14    51.970238    13.844803
4621.37    47.809971    14.106891
4622.60    55.159534     7.647221
4623.83    49.915230    13.496099
4625.07    23.974045    22.763813
4626.30    47.288628    10.792774
4627.53    44.217686    12.732834
4628.76    35.264664    17.930199
4629.99    42.271801    13.445385
4631.22    43.699371    10.547186
4632.45    33.225086    15.491373
4633.68    37.727058    13.207083
4634.91    46.047340     5.632482
4636.15    47.133629     7.889024
4637.38    48.386333    11.092154
4638.61    47.542469    13.962439
4639.84    45.489853    18.491989
4641.07    48.959019    15.730682
4642.30    42.917316     9.430458
4643.53    39.288952    10.469995
4644.76    38.685005    14.940514
4646.00    40.071724    15.568927
4647.23    44.767155    13.572189
4648.46    46.509209    15.626036
4649.69    41.827358    19.187441
4650.92    50.973003    11.137284
4652.15    46.591080    13.545851
4653.38    47.413998    19.233309
4654.61    56.219685    15.508941
4655.84    55.443703    10.858883
4657.08    57.247715    13.010055
4658.31    65.499321    11.761002
4659.54    42.344856    16.250477
4660.77    49.476669    14.310871
4662.00    54.614147    15.610457
4663.23    41.714817    17.571796
4664.46    51.590881    11.040932
4665.69    48.286133    16.882648
4666.93    47.664459    11.641932
4668.16    48.475506     9.419593
4669.39    50.518574    13.632610
4670.62    52.312904    16.739134
4671.85    56.902931    15.315290
4673.08    62.868702    13.032399
4674.31    51.187138    17.419645
4675.54    62.744263    17.594936
4676.77    60.232979    11.823695
4678.01    57.567177    10.974942
4679.24    61.279331    12.552965
4680.47    53.297821    10.074384
4681.70    62.930355    12.967754
4682.93    52.971359     9.894507
4684.16    54.821312     9.041459
4685.39    57.257851    15.144197
4686.62    53.192589    17.363747
4687.86    55.947346    15.370193
4689.09    57.911148    19.001604
4690.32    54.162369    14.043002
4691.55    67.282341     9.649335
4692.78    63.826626    13.855349
4694.01    49.512024    21.113411
4695.24    49.498352    20.500523
4696.47    53.862270    13.423301
4697.70    45.677177    13.727059
4698.94    37.407547    18.168783
4700.17    40.949352    13.254757
4701.40    49.823181    15.850691
4702.63    45.778938    21.491541
4703.86    33.571556    17.023176
4705.09    36.209763    15.008796
4706.32    45.392033    16.729313
4707.55    53.997570    17.355188
4708.79    48.450947    15.597578
4710.02    50.077770    12.413012
4711.25    60.571789    13.098566
4712.48    58.700687    14.423927
4713.71    57.981998     7.065107
4714.94    56.669952    14.414925
4716.17    47.030827    21.023325
4717.40    49.172298    19.096371
4718.63    57.740234    14.228656
4719.87    51.812531    13.503556
4721.10    46.132664    17.021225
4722.33    60.018852    15.270792
4723.56    53.648533    15.523385
4724.79    50.165123    15.886541
4726.02    53.858856    10.974259
4727.25    48.646217    12.676143
4728.48    48.246628    21.982065
4729.71    64.708038    13.468715
4730.95    53.791027    15.532455
4732.18    55.413738    18.079359
4733.41    68.195175    14.710909
4734.64    72.656570    10.990532
4735.87    68.639267    11.481805
4737.10    58.068901    14.002106
4738.33    48.856403    12.475735
4739.56    49.076473    19.316210
4740.80    59.000298    18.066881
4742.03    64.836563    13.183335
4743.26    60.666370    15.667486
4744.49    56.899685    15.849851
4745.72    57.741680    12.304738
4746.95    58.452934    11.759711
4748.18    49.757267    12.161829
4749.41    40.786385    11.682648
4750.64    55.718494    10.585493
4751.88    79.939384    10.081960
4753.11    70.485428    11.877962
4754.34    69.567429    13.702013
4755.57    59.440899    14.867616
4756.80    40.749866    18.398205
4758.03    43.594448    16.872202
4759.26    64.966133    10.482151
4760.49    66.984291    13.009583
4761.73    57.337334    15.916803
4762.96    54.116768    14.377273
4764.19    48.567646    10.948243
4765.42    50.521439    12.989384
4766.65    61.908405    15.603573
4767.88    65.189026     9.689333
4769.11    66.858917     9.021389
4770.34    55.585434    19.874268
4771.57    60.209000    19.374432
4772.81    63.165104    15.675416
4774.04    60.532177    14.676641
4775.27    66.566483    10.044505
4776.50    56.846569    13.969028
4777.73    70.120857     9.689213
4778.96    62.326466    12.606925
4780.19    59.130234    17.392036
4781.42    66.875244    14.560184
4782.66    56.682369    12.136377
4783.89    57.199139    15.827573
4785.12    74.450912    16.307552
4786.35    60.111931    15.006008
4787.58    50.961128    12.282921
4788.81    62.684547    13.629457
4790.04    65.901505    19.650370
4791.27    64.923630    20.043976
4792.50    69.142014    17.851852
4793.74    62.943817    13.956638
4794.97    60.762512    17.360970
4796.20    67.438141    21.100088
4797.43    66.762962    18.917311
4798.66    61.911079    19.041224
4799.89    76.869331    13.656372
4801.12    76.105026    14.281309
4802.35    72.474327    13.820953
4803.59    71.645065    14.333690
4804.82    71.099106    16.547039
4806.05    79.977280    11.016904
4807.28    77.164139    11.744442
4808.51    73.167778    11.223856
4809.74    70.271751    12.120153
4810.97    76.651581    12.367460
4812.20    89.595497    11.329781
4813.43    85.105064    15.968858
4814.67    64.810722    19.444328
4815.90    62.209766    21.500546
4817.13    71.559364    18.126389
4818.36    77.705956    14.281632
4819.59    78.995346    15.247401
4820.82    75.157959    15.996536
4822.05    67.072037    15.956784
4823.28    80.959846    16.574614
4824.52    77.653549    17.614691
4825.75    54.666138    20.413610
4826.98    55.937836    23.040539
4828.21    80.427567    20.170280
4829.44    77.880417    16.908524
4830.67    61.792572    19.789740
4831.90    55.699631    19.935316
4833.13    57.276371    15.819208
4834.36    62.667713    15.163833
4835.60    77.424377    16.957705
4836.83    76.457260    16.165821
4838.06    74.283905    16.876451
4839.29    78.638290    18.999853
4840.52    74.510880    18.243843
4841.75    62.712036    16.011730
4842.98    69.158371    17.178850
4844.21    71.538788    13.298762
4845.45    69.955505    16.578405
4846.68    68.104805    17.784786
4847.91    72.404861    13.759309
4849.14    78.802155    16.064369
4850.37    65.532799    15.951944
4851.60    67.686852    17.151104
4852.83    82.019928    14.904017
4854.06    91.524307    15.700832
4855.29    81.901421    20.130005
4856.53    62.038052    17.057411
4857.76    78.590622    16.908703
4858.99    86.206879    16.844187
4860.22    85.181747    21.659924
4861.45    81.027885    24.388836
4862.68    70.207420    18.434538
4863.91    71.257729    17.698944
4865.14    81.408302    20.810802
4866.38    90.549614    13.756182
4867.61    84.669266    14.158496
4868.84    72.049530    20.948078
4870.07    74.253036    13.837916
4871.30    83.438461    13.481951
4872.53    79.475578    15.806638
4873.76    73.556252    15.361504
4874.99    77.801918    18.016499
4876.22    90.111824    20.351137
4877.46    96.590347    13.082880
4878.69    77.710251    20.069580
4879.92    72.339066    26.238760
4881.15    78.190613    21.441034
4882.38    82.712601    13.320086
4883.61    82.472122    12.122801
4884.84    64.730835    17.244513
4886.07    76.420258    18.978521
4887.31    78.057449    19.701561
4888.54    60.049038    21.711769
4889.77    61.303715    20.305506
4891.00    83.878021    13.444860
4892.23    84.900047    11.422266
4893.46    86.785843    14.333248
4894.69    81.600937    16.763922
4895.92    71.752579    20.537159
4897.15    81.106827    24.974005
4898.39    87.492256    17.691034
4899.62    88.779785    21.328014
4900.85    92.733971    23.255325
4902.08    83.646225    21.481779
4903.31    67.040680    25.119644
4904.54    85.915703    21.875290
4905.77    99.672287    15.737932
4907.00    96.189682    17.256348
4908.24    88.452072    22.868389
4909.47    82.847801    23.748203
4910.70    78.769081    19.413441
4911.93    87.085167    13.925449
4913.16    82.124924    18.805727
4914.39    76.908325    24.419754
4915.62    83.453339    23.882963
4916.85    80.020035    24.000084
4918.08    63.123833    22.779646
4919.32    86.550819    18.748007
4920.55    101.200279    19.661621
4921.78    91.663330    23.622803
4923.01    90.642914    21.781141
4924.24    79.775909    17.429932
4925.47    83.992805    17.954031
4926.70    82.746582    23.654358
4927.93    85.197754    25.304743
4929.17    96.681740    19.440668
4930.40    84.084984    16.815664
4931.63    98.649445    20.420883
4932.86    96.062279    22.704781
4934.09    93.239197    16.518408
4935.32    109.305679     9.987168
4936.55    93.276039    18.536007
4937.78    80.416504    31.039280
4939.01    94.196686    31.079550
4940.25    114.229370    25.216663
4941.48    113.134148    22.447527
4942.71    95.311707    19.097710
4943.94    88.151436    20.688137
4945.17    99.450623    24.164740
4946.40    116.637718    19.364624
4947.63    115.143410    14.582031
4948.86    92.839645    25.310829
4950.09    96.035255    29.154564
4951.33    105.563278    23.111656
4952.56    106.405136    17.321316
4953.79    98.960777    20.335732
4955.02    95.154205    26.129799
4956.25    119.307938    18.217953
4957.48    118.126572    21.829737
4958.71    110.020134    24.909239
4959.94    116.188011    23.120947
4961.18    106.177063    34.588074
4962.41    90.982605    31.169647
4963.64    102.554031    22.688976
4964.87    108.704826    21.864492
4966.10    90.064827    26.798981
4967.33    83.639694    29.843704
4968.56    96.116158    29.823318
4969.79    116.415512    21.150387
4971.02    119.371544    12.924418
4972.26    102.513710    19.079624
4973.49    90.838974    32.704750
4974.72    85.447777    25.008881
4975.95    86.312737    24.372793
4977.18    93.230453    34.227844
4978.41    101.829536    38.188427
4979.64    104.394089    35.306446
4980.87    98.817200    22.724564
4982.11    97.279030    18.694752
4983.34    99.259193    21.175005
4984.57    100.276276    18.815351
4985.80    106.664055    18.534698
4987.03    113.518845    22.221123
4988.26    121.961777    21.580547
4989.49    121.891556    18.750252
4990.72    114.033745    20.025045
4991.95    121.311516    20.487173
4993.19    108.211105    24.318741
4994.42    96.259071    25.890001
4995.65    101.444244    23.538849
4996.88    105.899109    24.830957
4998.11    108.739471    30.423655
4999.34    112.997261    22.667013
5000.57    101.951744    16.828926
5001.80    89.451988    22.882095
5003.04    107.955917    24.206953
5004.27    119.144226    22.005157
5005.50    115.638786    28.329166
5006.73    116.063782    28.240143
5007.96    120.625679    20.173292
5009.19    108.704651    30.807375
5010.42    106.937576    27.979355
5011.65    110.107674    22.372862
5012.88    107.983383    24.951387
5014.12    103.003548    27.998476
5015.35    100.711327    29.528263
5016.58    109.800362    31.408567
5017.81    115.563324    28.829607
5019.04    105.213013    23.423914
5020.27    91.391716    23.760269
5021.50    95.778389    26.740210
5022.73    92.907021    29.663675
5023.97    97.561447    27.047153
5025.20    115.267090    21.960075
5026.43    106.615479    26.062904
5027.66    115.341499    28.128708
5028.89    116.287300    28.061401
5030.12    108.418732    26.016449
5031.35    116.936890    22.912907
5032.58    108.721230    29.201309
5033.81    107.896881    30.781380
5035.05    125.338692    26.113913
5036.28    141.821014    24.080036
5037.51    135.848709    26.669077
5038.74    116.650574    26.749960
5039.97    107.211555    25.273357
5041.20    102.503777    25.159081
5042.43    93.016838    26.943752
5043.66    100.308205    29.575998
5044.90    99.599213    29.595015
5046.13    103.578003    26.533934
5047.36    115.267227    26.547583
5048.59    109.958023    32.069225
5049.82    120.586319    24.908279
5051.05    136.286865    16.793592
5052.28    128.546082    19.849394
5053.51    105.245468    27.871330
5054.74    111.239204    27.305653
5055.98    101.335442    23.614164
5057.21    90.771622    23.711840
5058.44    102.027031    26.084135
5059.67    107.290741    25.789907
5060.90    110.494751    28.936382
5062.13    100.242249    32.316811
5063.36    96.676445    31.359562
5064.59    116.501884    27.253466
5065.83    108.683945    24.609985
5067.06    111.852982    23.104952
5068.29    120.133080    23.442024
5069.52    118.416138    22.780472
5070.75    133.241821    17.630072
5071.98    122.518425    25.387207
5073.21    120.597038    29.317116
5074.44    135.567780    22.115377
5075.67    123.313103    20.859612
5076.91    111.514030    22.508087
5078.14    115.252686    26.715576
5079.37    132.279114    28.795111
5080.60    145.029602    24.200163
5081.83    131.862823    20.135309
5083.06    119.455482    27.107597
5084.29    122.942055    34.102448
5085.52    130.038605    31.822607
5086.76    126.499374    30.274704
5087.99    135.976624    28.822392
5089.22    142.293015    27.546745
5090.45    134.767914    28.342783
5091.68    128.775070    30.854609
5092.91    125.587608    30.272860
5094.14    139.136581    30.622271
5095.37    147.620804    28.671831
5096.60    128.986496    23.878330
5097.84    123.273567    31.754303
5099.07    130.299454    32.057003
5100.30    146.318542    23.398277
5101.53    156.891891    21.058372
5102.76    136.446671    28.032061
5103.99    122.473885    31.892118
5105.22    122.553452    29.659952
5106.45    121.600029    25.667198
5107.69    117.361832    23.216610
5108.92    126.480347    22.972216
5110.15    130.007614    22.623119
5111.38    126.437706    20.581650
5112.61    133.693314    19.563580
5113.84    128.383881    25.334797
5115.07    125.116234    28.803570
5116.30    129.836945    26.248962
5117.53    128.598083    23.999197
5118.77    120.220451    25.588280
5120.00    122.717674    25.303738
5121.23    129.831390    27.741655
5122.46    128.045364    33.991985
5123.69    130.428558    27.766769
5124.92    139.604553    22.908672
5126.15    150.014206    23.046453
5127.38    146.741074    23.004829
5128.62    122.840561    24.227480
5129.85    130.383621    27.167168
5131.08    146.785965    27.338369
5132.31    137.068527    23.826342
5133.54    124.789108    22.738733
5134.77    136.317871    24.433586
5136.00    155.714005    24.551563
5137.23    154.532776    25.477909
5138.46    131.263672    32.338104
5139.70    123.511658    30.859600
5140.93    142.027023    32.430222
5142.16    158.075363    36.690838
5143.39    145.094193    28.302982
5144.62    144.306168    26.397795
5145.85    152.376404    26.063370
5147.08    153.642715    24.066854
5148.31    146.152390    27.366510
5149.54    131.557404    29.648678
5150.78    127.269165    27.041868
5152.01    132.625900    25.336340
5153.24    135.060226    29.655529
5154.47    143.941650    29.431261
5155.70    135.849350    33.370125
5156.93    113.189957    37.907082
5158.16    112.079117    34.054970
5159.39    146.949310    37.951927
5160.63    154.110657    35.977821
5161.86    131.522232    27.874113
5163.09    129.299118    26.938923
5164.32    135.951401    26.695936
5165.55    134.454956    24.871279
5166.78    126.607628    25.828413
5168.01    125.503227    31.511143
5169.24    134.290085    32.613331
5170.47    150.546234    27.841953
5171.71    160.575500    25.264204
5172.94    151.111969    29.617992
5174.17    130.469971    30.060381
5175.40    122.711060    27.623030
5176.63    132.953705    25.673359
5177.86    143.695328    24.987616
5179.09    139.159546    25.287195
5180.32    135.527222    24.056150
5181.56    140.086044    26.333593
5182.79    141.635208    33.748215
5184.02    133.411819    29.722677
5185.25    136.392197    26.802423
5186.48    145.476120    29.248272
5187.71    136.445358    30.367111
5188.94    121.074471    36.890324
5190.17    133.662567    34.618515
5191.40    150.632050    24.811649
5192.64    130.028442    24.279669
5193.87    125.186943    29.916191
5195.10    134.718872    32.119553
5196.33    138.948303    32.488319
5197.56    135.435165    37.555138
5198.79    136.661133    36.320644
5200.02    143.581635    35.582893
5201.25    150.662292    38.091274
5202.49    149.744797    35.905815
5203.72    130.329254    31.809130
5204.95    112.572769    29.200232
5206.18    110.092407    27.840502
5207.41    114.452538    26.546267
5208.64    127.038986    30.079657
5209.87    135.813553    26.802547
5211.10    132.706406    21.229572
5212.33    127.123871    34.918030
5213.57    131.263229    36.511898
5214.80    141.375183    29.308838
5216.03    142.983734    31.011492
5217.26    128.525696    36.788372
5218.49    121.869217    33.079868
5219.72    134.759354    29.272207
5220.95    148.149628    33.906891
5222.18    131.119644    31.893604
5223.42    126.171959    31.906805
5224.65    135.139450    32.357048
5225.88    134.003510    26.564915
5227.11    136.454437    23.742149
5228.34    131.697067    28.573338
5229.57    130.948425    31.513699
5230.80    148.967834    26.093798
5232.03    151.511185    31.258041
5233.26    145.537384    32.807556
5234.50    144.026306    29.153877
5235.73    148.415405    33.879406
5236.96    162.861649    29.003376
5238.19    161.104446    27.367060
5239.42    145.662399    31.890245
5240.65    153.493591    23.466089
5241.88    160.067993    19.587393
5243.11    144.682220    25.995630
5244.35    126.983658    29.047825
5245.58    146.740906    14.829370
5246.81    151.013733    12.326584
5248.04    144.524353    22.693033
5249.27    154.508804    28.731497
5250.50    150.400299    31.117868
5251.73    131.676163    37.008644
5252.96    127.281136    39.182182
5254.19    153.682663    29.430748
5255.43    168.031296    25.616920
5256.66    142.289963    32.127075
