#Wavelength     Flux    Sky Spectrum 
#[Angstrom]   [Counts]     [Counts]
4579.10     6.371383     2.923545
4579.71    11.855844     2.101636
4580.31     7.868392     1.802663
4580.92     6.978415     2.605831
4581.53    10.766987     2.795576
4582.14     9.799458     2.006536
4582.74     7.288737     2.900143
4583.35     6.920642     2.898662
4583.96    10.637721     3.739715
4584.56    10.889303     3.343892
4585.17     5.707092     0.891896
4585.78     6.554597     1.746070
4586.39     9.093046     3.018054
4586.99     7.011005     2.317536
4587.60     5.035079     2.519925
4588.21     8.543270     3.988081
4588.81    12.660276     2.223583
4589.42    13.966153     1.612147
4590.03    13.929193     3.137347
4590.64    11.668187     4.070786
4591.24     8.896623     4.126500
4591.85     9.950553     5.059208
4592.46     8.815289     2.834155
4593.06     6.287092     1.474852
4593.67     1.614325     2.723225
4594.28    -0.575460     4.124650
4594.89     5.662505     4.014931
4595.49     9.616539     3.539661
4596.10    15.558238     0.884551
4596.71    14.756168     0.705423
4597.31     6.506310     3.396630
4597.92     4.962342     3.024873
4598.53    10.317291     1.151645
4599.14    15.525343     1.949113
4599.74    11.197214     3.787849
4600.35     3.964176     3.767166
4600.96     5.088347     3.013371
4601.56     7.426929     4.024950
4602.17     9.925652     2.825962
4602.78     4.813624     5.217023
4603.38     3.988916     6.050790
4603.99    15.932209     0.688248
4604.60    18.674107     0.792430
4605.21    10.630272     1.765807
4605.81     7.186354     2.492036
4606.42     7.908509     3.252315
4607.03     9.936856     2.760633
4607.63    15.207993     1.864423
4608.24     6.738037     5.452417
4608.85    13.704772     4.188202
4609.46    19.540768     1.212804
4610.06    11.723151     2.542204
4610.67    10.994768     4.004801
4611.28    11.301928     1.405961
4611.88     8.794324     1.821681
4612.49     5.140849     3.956431
4613.10     4.231653     3.505894
4613.71     6.085151     2.003619
4614.31     6.074137     3.037767
4614.92     5.898723     1.311510
4615.53     6.213811     2.432386
4616.13     5.504169     3.860234
4616.74     6.689941     1.756332
4617.35    11.910635     1.887912
4617.96     8.455123     3.708265
4618.56     6.089534     3.605683
4619.17     8.191613     2.775618
4619.78     8.586102     3.163507
4620.38     5.986780     4.011909
4620.99     6.876548     4.261073
4621.60     6.711937     2.032839
4622.21    12.435251     0.537451
4622.81    14.777267     1.478236
4623.42     6.319577     3.171913
4624.03     4.124356     4.768786
4624.63     2.736639     6.380358
4625.24     5.469326     3.237125
4625.85     6.339069     0.781201
4626.46     7.228292     2.173200
4627.06    14.956626     2.002784
4627.67    10.621359     2.089133
4628.28     6.424587     1.235511
4628.88     5.785379     1.494681
4629.49     6.377687     3.797580
4630.10     9.393787     4.929872
4630.71    13.054338     3.091499
4631.31     9.285021     3.905529
4631.92     8.716967     2.540714
4632.53    12.329870     0.758330
4633.13    11.090888     2.469452
4633.74     6.968259     4.006864
4634.35    11.857725     2.355381
4634.95     6.474373     2.233145
4635.56     6.735537     3.907083
4636.17    14.214212     3.316870
4636.78    11.548582     0.946961
4637.38     7.207829     1.946711
4637.99     8.203762     1.116254
4638.60     9.292874     2.267875
4639.20     6.130288     4.946338
4639.81     2.732202     4.548546
4640.42     3.977281     2.010472
4641.03     5.597550     3.387938
4641.63     7.226282     5.597978
4642.24     5.198994     5.814644
4642.85     2.893017     4.535326
4643.45     7.980893     2.753739
4644.06    15.102386     1.013539
4644.67     7.718463     1.978425
4645.28     9.202093     0.602150
4645.88    13.062987     1.101887
4646.49     5.834065     4.503918
4647.10     1.053139     3.956899
4647.70     9.364522     2.046204
4648.31    13.445932     3.339120
4648.92    11.843730     3.836890
4649.53    11.023335     2.664552
4650.13     9.277104     3.263991
4650.74     4.922042     4.985798
4651.35    11.333235     3.561364
4651.95    13.034757     2.235557
4652.56    12.267595     1.777664
4653.17    14.615205     2.436878
4653.78    13.697142     4.047247
4654.38     9.052358     3.252269
4654.99    12.835706     1.447929
4655.60    12.450975     0.778450
4656.20    12.199239     1.273383
4656.81    14.686436     2.250446
4657.42    10.009481     3.000589
4658.03    10.034980     2.138290
4658.63     7.976191     2.080437
4659.24     7.248441     1.352828
4659.85     7.792947     1.521194
4660.45     5.698272     5.806603
4661.06     5.736294    10.022250
4661.67    11.526529     5.630763
4662.28    13.976721     2.050176
4662.88    11.376854     2.448662
4663.49     8.341372     2.955418
4664.10     9.301370     3.107257
4664.70    15.304705     5.003325
4665.31    17.099972     2.874975
4665.92    12.383886     1.948361
4666.53    10.080780     4.033910
4667.13    12.265661     6.537633
4667.74    10.976596     8.001091
4668.35     7.070882     7.163496
4668.95     2.420009     6.703441
4669.56     8.044791     3.818618
4670.17    12.832499     2.167050
4670.77     7.300862     4.178872
4671.38     6.013483     4.004437
4671.99     5.787374     4.218154
4672.60     7.636698     2.208307
4673.20    10.171405     0.445641
4673.81     8.967343     1.640168
4674.42     5.974987     2.964589
4675.02     7.918324     1.929865
4675.63     6.075021     4.391988
4676.24     3.442153     4.481822
4676.85     3.124085     4.659379
4677.45     4.420897     5.950418
4678.06     6.073129     3.883199
4678.67     7.635091     2.171158
4679.27     9.993190     1.682470
4679.88     7.970742     3.167780
4680.49     5.808896     3.928040
4681.10     7.246819     2.794901
4681.70     7.999632     2.000344
4682.31     9.684000     0.970836
4682.92    10.125985     2.235074
4683.52     6.141884     3.429097
4684.13     6.817091     2.372748
4684.74    10.638979     0.898567
4685.35     4.145908     1.888388
4685.95     6.858971     4.555973
4686.56     8.906725     4.888585
4687.17     9.997346     2.576571
4687.77    12.874007     0.630508
4688.38    13.956187     1.174190
4688.99    12.213504     2.897505
4689.60    10.287591     3.120645
4690.20    10.149136     2.860212
4690.81    12.242771     3.370919
4691.42    12.406976     4.158690
4692.02     7.607707     3.933532
4692.63     4.022470     2.997926
4693.24     6.578116     3.837100
4693.85     9.903265     3.236873
4694.45    11.737992     1.070352
4695.06     9.839894     1.649202
4695.67     4.964267     6.138588
4696.27     7.571692     8.255867
4696.88     7.201204     4.920660
4697.49     4.437833     4.720784
4698.10     7.177915     3.360249
4698.70    10.887481     0.126911
4699.31     7.997799     3.982208
4699.92    12.205126     3.405072
4700.52    12.738153     2.520008
4701.13    11.921697     4.285136
4701.74    11.519984     4.425096
4702.35     9.858929     1.666942
4702.95    10.881037     1.004271
4703.56    14.255965     0.957770
4704.17    15.838739     1.418081
4704.77    12.769767     2.918701
4705.38    11.555526     2.117040
4705.99    12.584511     0.118876
4706.59     7.110823     3.742403
4707.20    11.273014     4.532309
4707.81    14.564894     2.271838
4708.42    12.733240     3.283604
4709.02     8.551124     4.751402
4709.63     7.377185     3.035545
4710.24    14.502168     4.982841
4710.84    13.592770     3.079782
4711.45     9.208783     5.802751
4712.06     7.819753     7.881660
4712.67     9.753639     3.758985
4713.27    12.038008     0.986621
4713.88    11.826921     2.735505
4714.49    14.116304     3.232383
4715.09    10.717589     2.713457
4715.70     8.038445     3.723284
4716.31     8.425333     5.114783
4716.92     5.001140     3.944555
4717.52     8.518406     2.621927
4718.13     8.629394     6.978033
4718.74    12.148570     6.127521
4719.34    12.346148     1.862375
4719.95     8.093904     2.320661
4720.56    11.992392     3.993329
4721.17     8.749535     4.033383
4721.77     8.063105     4.128363
4722.38    10.023061     3.228421
4722.99     9.237495     1.325542
4723.59     8.232907     1.259377
4724.20    10.056637     3.910749
4724.81     6.207538     4.489731
4725.42     9.738306     1.562311
4726.02    11.806597     2.394697
4726.63     9.725958     3.495131
4727.24     8.485742     2.352014
4727.84     4.888458     6.924031
4728.45    10.863295     3.781857
4729.06    10.007944     4.166429
4729.67     8.176230     3.858890
4730.27    10.352747     2.274705
4730.88     9.961199     5.198151
4731.49    10.003413     5.090602
4732.09     9.861228     4.333609
4732.70    10.426827     3.053309
4733.31     5.254384     3.997679
4733.92    -0.385642     6.448892
4734.52     4.514030     5.845347
4735.13    11.291494     3.228742
4735.74    14.326660     2.843217
4736.34    11.511759     3.023532
4736.95     7.660859     3.111705
4737.56     8.935856     2.731122
4738.17    11.960053     2.033807
4738.77     9.490430     3.866662
4739.38    17.889254     3.201230
4739.99    16.562149     3.963801
4740.59     9.097130     5.014196
4741.20    10.752439     3.720798
4741.81    14.013144     2.998130
4742.41    12.919665     3.588093
4743.02     7.515315     6.027259
4743.63    10.145658     3.613519
4744.24    11.958814     0.719984
4744.84     8.057827     2.171176
4745.45    11.955009     2.006570
4746.06     9.772040     2.036145
4746.66     8.337658     1.458617
4747.27    10.340391     0.544771
4747.88    10.416374     1.960048
4748.49    10.625196     3.971207
4749.09    15.114866     2.064712
4749.70     7.451473     2.691692
4750.31     8.315168     3.113425
4750.91    11.645636     3.138172
4751.52    11.251795     4.700206
4752.13    13.131648     5.934349
4752.74    13.046703     3.321683
4753.34    12.045644     0.887345
4753.95     6.998227     3.152552
4754.56     5.670492     5.830829
4755.16    14.176107     4.037896
4755.77    20.875223     0.912863
4756.38    13.548132     1.847282
4756.99    15.291491     2.079798
4757.59    13.052940     2.270674
4758.20     9.754284     3.909245
4758.81    14.469085     4.990277
4759.41    16.873495     3.965673
4760.02    10.539838     3.255056
4760.63    12.435857     1.222553
4761.24    14.027414     2.322595
4761.84    10.167160     4.529325
4762.45     8.069846     3.637300
4763.06    10.001031     1.999224
4763.66     9.834246     2.599191
4764.27    11.856201     4.699104
4764.88    10.002680     4.162593
4765.49    10.825948     2.873971
4766.09    16.183214     4.357700
4766.70    12.181822     5.985740
4767.31     9.909479     5.234516
4767.91    11.452546     4.654338
4768.52    14.878224     2.411152
4769.13    11.151427     3.472161
4769.74     3.984123     8.114717
4770.34     9.716202     5.207873
4770.95     7.490760     4.910127
4771.56     4.503541     4.062605
4772.16     9.636314     2.196460
4772.77    14.113081     2.329024
4773.38    10.792792     4.128566
4773.99    10.126936     4.958722
4774.59     7.830940     5.075366
4775.20     6.404179     4.630862
4775.81     8.131171     3.208583
4776.41    10.298216     1.795978
4777.02     9.959389     2.033839
4777.63     9.019277     3.585641
4778.23     9.660299     6.274444
4778.84    10.118136     7.099830
4779.45     9.971055     4.682878
4780.06     9.992134     1.532917
4780.66     9.023032     0.990800
4781.27     6.269328     2.656202
4781.88     7.784423     3.389801
4782.48    17.187649     1.942768
4783.09    19.294798     1.006130
4783.70    10.107239     2.193333
4784.31     9.030699     2.985930
4784.91     7.241286     2.951987
4785.52     8.534959     3.320150
4786.13    14.232285     1.801578
4786.73    14.762506     1.707719
4787.34     8.709323     5.177732
4787.95     9.807309     4.262243
4788.56    10.033920     2.247610
4789.16    10.852329     2.411153
4789.77    12.956785     3.229308
4790.38    14.147685     2.795542
4790.98    13.979707     1.979349
4791.59    12.581782     1.957618
4792.20     8.401907     2.438550
4792.81    10.782112     4.422914
4793.41    17.223293     4.263864
4794.02    17.281631     1.720021
4794.63    12.046356     1.989113
4795.23    11.318548     2.723577
4795.84     8.034353     4.094185
4796.45     8.096197     2.543589
4797.06     9.981528     1.130874
4797.66     7.724583     3.236712
4798.27     8.638540     3.143022
4798.88    15.037588     0.967774
4799.48    14.231977     3.335256
4800.09    11.088344     5.166000
4800.70    10.833308     3.601659
4801.31    11.179335     2.975657
4801.91    15.416019     2.938787
4802.52    17.306824     4.061627
4803.13    10.452415     7.417020
4803.73     2.296526     9.099562
4804.34     4.769679     6.003308
4804.95    14.037498     1.983988
4805.56    11.530768     3.125585
4806.16     5.221545     7.694459
4806.77    12.463777     5.036378
4807.38    18.962048     0.098455
4807.98    12.125947     1.258459
4808.59    10.043255     2.872982
4809.20     8.717543     5.372141
4809.81     5.666971     6.965425
4810.41     6.046535     6.491952
4811.02    10.155226     4.162895
4811.63    10.767648     1.918438
4812.23     7.012564     2.696581
4812.84    11.138807     4.954544
4813.45    13.793256     3.314021
4814.05     9.643915     2.301132
4814.66     7.361058     4.235230
4815.27    13.033732     2.983946
4815.88    16.898291     0.112852
4816.48    15.609632     1.841971
4817.09    15.511655     3.351360
4817.70    15.313660     2.994071
4818.30    11.468548     4.306660
4818.91    10.730004     6.010790
4819.52    15.915886     4.366948
4820.13    10.559889     4.707195
4820.73     4.518455     7.245008
4821.34     8.814741     7.716433
4821.95    12.942414     5.944962
4822.55     8.412458     6.028328
4823.16     9.820646     5.171204
4823.77    11.205180     5.558069
4824.38    11.665806     5.649300
4824.98    14.469277     3.604617
4825.59    15.973622     2.030214
4826.20    15.814619     1.656545
4826.80    10.166983     4.079935
4827.41     4.699245     4.826082
4828.02     6.585630     3.934502
4828.63    13.643959     3.903209
4829.23    15.492657     2.897182
4829.84     8.325324     5.426178
4830.45     9.541724     5.145074
4831.05    14.033563     3.846554
4831.66    14.247655     3.760420
4832.27    13.956023     1.988718
4832.88     7.434726     1.909860
4833.48    10.564867     2.377591
4834.09     9.731086     4.538047
4834.70     8.058546     6.110558
4835.30    13.155738     4.795181
4835.91     9.377966     3.979029
4836.52     7.627612     4.828417
4837.13     9.666879     4.615650
4837.73    11.741838     3.534860
4838.34    11.867936     2.857985
4838.95     9.892898     3.036118
4839.55     6.326162     4.746613
4840.16     6.852916     5.225148
4840.77     9.486260     4.546573
4841.38     9.537146     3.683308
4841.98     9.361959     2.891317
4842.59    12.927002     2.904270
4843.20    10.775481     5.228794
4843.80    10.110017     7.322032
4844.41    11.610652     8.555520
4845.02    12.008582     8.955460
4845.63     9.803159     7.942065
4846.23     5.538538     5.683813
4846.84    14.121050     1.273474
4847.45    19.258383    -0.131630
4848.05    17.729515     1.725802
4848.66    15.041877     3.151813
4849.27     8.936863     3.105783
4849.87    15.725012     1.609061
4850.48    13.673544     5.276424
4851.09    12.417920     6.102757
4851.70    17.518950     2.457470
4852.30    15.966218     3.048067
4852.91    16.781643     4.035646
4853.52    17.093861     2.862701
4854.12    17.095371     1.014576
4854.73    16.631519     1.711231
4855.34    16.097345     2.824507
4855.95    18.661625     0.093639
4856.55    21.127523     1.442146
4857.16    13.369729     1.763079
4857.77     9.105466     0.631065
4858.37    15.602337     1.381648
4858.98    18.996031     3.006360
4859.59    15.814101     2.874686
4860.20    13.117427     4.456460
4860.80    10.153237     4.483345
4861.41    13.937534     2.343366
4862.02    19.521091     0.854927
4862.62     7.820624     0.715623
4863.23    10.002855     4.769281
4863.84    11.679472     6.476186
4864.45     7.210886     5.848766
4865.05     7.923252     6.043934
4865.66    14.851124     6.008467
4866.27    16.023926     5.329285
4866.87    10.001524     3.741203
4867.48     5.552688     2.586119
4868.09     6.666957     3.550543
4868.70    10.264198     4.982721
4869.30    13.823461     3.238386
4869.91    13.073812     2.956830
4870.52    14.679802     2.607115
4871.12    15.250271     4.239549
4871.73    10.276360     7.034769
4872.34     6.301773     5.095326
4872.95     4.866727     5.312720
4873.55    16.803089     2.430087
4874.16    20.081333     1.727652
4874.77    12.522095     4.104922
4875.37    15.998920     2.999959
4875.98    12.477321     5.217707
4876.59     7.014724     7.939976
4877.20     6.580784     6.632065
4877.80    10.207659     3.055766
4878.41    11.919206     2.048385
4879.02     9.901101     3.739703
4879.62    13.555711     4.783667
4880.23    14.813806     5.464997
4880.84    11.933236     6.281506
4881.45     9.667714     5.725857
4882.05     8.856071     3.980786
4882.66    12.695397     5.796434
4883.27    15.395262     4.337186
4883.87    13.867619     3.185110
4884.48    13.564119     3.737670
4885.09    16.018641     1.995676
4885.69     9.618994     4.567110
4886.30     7.106247     4.106547
4886.91    19.115362     2.462609
4887.52    24.252575     3.559692
4888.12    12.812033     4.996514
4888.73    19.073055     3.368870
4889.34    17.140278     1.983909
4889.94    10.986286     2.673383
4890.55    10.284374     4.851709
4891.16     9.511024     7.274220
4891.77     4.943317     8.176700
4892.37    10.717854     5.010254
4892.98    13.773577     3.654682
4893.59    13.204473     3.941986
4894.19    16.961891     2.702103
4894.80    20.131023     1.936409
4895.41    13.595345     4.422210
4896.02    12.282748     4.850586
4896.62    14.857012     3.312687
4897.23    16.700655     3.193922
4897.84    19.000614     4.000411
4898.44    16.234268     2.352454
4899.05    17.820410     2.080675
4899.66    15.053322     4.537728
4900.27     9.131071     5.955410
4900.87    10.080073     5.008265
4901.48    11.524641     6.038044
4902.09    14.664126     4.108491
4902.69    13.250393     2.489873
4903.30    13.232952     3.489872
4903.91    18.134691     5.151275
4904.52    14.720625     5.331917
4905.12    10.793450     2.020904
4905.73     9.478795     5.253513
4906.34    10.840561     7.232107
4906.94    13.244044     2.714232
4907.55    14.749151     3.896546
4908.16    17.394587     3.298891
4908.77    13.009303     3.395149
4909.37    10.303600     4.093376
4909.98    13.105555     4.074456
4910.59    10.230175     5.813434
4911.19     7.771187     8.925112
4911.80    10.374486     6.513492
4912.41    12.036598     2.872489
4913.02    12.654114     3.343149
4913.62    17.886257     4.982967
4914.23    20.664568     4.407930
4914.84    21.281656     3.020753
4915.44    17.205790     3.770874
4916.05    14.264978     5.030071
4916.66    19.028273     3.993939
4917.27    20.336657     3.876506
4917.87    18.125038     4.326271
4918.48    16.203957     2.946389
4919.09    12.296046     2.304857
4919.69     8.051905     3.999728
4920.30    14.097414     2.838953
4920.91    14.229611     5.871330
4921.51    16.636343     5.950050
4922.12    19.726870     2.089843
4922.73    15.904193     2.134261
4923.34    18.179905     4.916001
4923.94    21.484240     2.954547
4924.55    17.737879     2.550481
4925.16    11.658550     4.183759
4925.76    12.278634     4.058777
4926.37    16.003294     5.776535
4926.98    13.069875     5.814692
4927.59    17.078148     3.451698
4928.19    17.787308     3.933989
4928.80    10.076413     5.803344
4929.41    17.646669     1.213332
4930.01    11.551625     4.308804
4930.62    11.591488     5.893906
4931.23    15.727717     5.495643
4931.84     8.150829     8.135720
4932.44     3.764188     7.276958
4933.05     9.359782     5.545924
4933.66    13.763068     4.351004
4934.26    14.189672     3.976739
