#Wavelength     Flux
#[Angstrom]   [Counts]
3923.59     0.000000
3925.22     0.000000
3926.84     0.000000
3928.46     0.000000
3930.09     0.000000
3931.71     0.000000
3933.34     0.000000
3934.96     0.000000
3936.58     0.000000
3938.21     0.000000
3939.83     0.000000
3941.46     0.000000
3943.08     0.000000
3944.70     0.000000
3946.33     0.000000
3947.95    -584.277700
3949.58    -1830.253000
3951.20    -2738.487000
3952.82    5991.625000
3954.45    12206.310000
3956.07    8255.273000
3957.70    6917.450000
3959.32    6445.217000
3960.94    5670.005000
3962.57    5957.014000
3964.19    6152.422000
3965.82    6481.733000
3967.44    7623.083000
3969.06    8880.837000
3970.69    9472.884000
3972.31    9816.377000
3973.94    11009.230000
3975.56    11664.860000
3977.18    12495.080000
3978.81    14234.560000
3980.43    13896.400000
3982.06    13051.520000
3983.68    13831.840000
3985.30    13386.860000
3986.93    12112.790000
3988.55    10541.650000
3990.18    9265.533000
3991.80    8687.878000
3993.43    7673.298000
3995.05    7058.186000
3996.67    6949.938000
3998.30    7300.285000
3999.92    8270.698000
4001.55    9427.030000
4003.17    10762.370000
4004.79    11802.610000
4006.42    13664.090000
4008.04    14600.850000
4009.67    15741.770000
4011.29    16508.450000
4012.91    16839.300000
4014.54    16853.070000
4016.16    17032.830000
4017.79    18404.570000
4019.41    18619.630000
4021.03    18666.830000
4022.66    18067.110000
4024.28    18064.460000
4025.91    18682.810000
4027.53    19544.770000
4029.15    18054.550000
4030.78    19210.040000
4032.40    19808.480000
4034.03    18374.460000
4035.65    18943.010000
4037.27    19825.780000
4038.90    20380.160000
4040.52    19741.670000
4042.15    19320.960000
4043.77    20144.610000
4045.39    20978.090000
4047.02    20212.690000
4048.64    20897.800000
4050.27    20881.750000
4051.89    21004.550000
4053.51    20453.780000
4055.14    19811.710000
4056.76    20110.470000
4058.39    19816.620000
4060.01    18692.390000
4061.64    18400.380000
4063.26    17611.450000
4064.88    18848.940000
4066.51    20304.540000
4068.13    20880.350000
4069.76    19087.780000
4071.38    19556.220000
4073.00    18421.060000
4074.63    18494.570000
4076.25    18418.290000
4077.88    19207.210000
4079.50    19576.060000
4081.12    19684.390000
4082.75    19451.080000
4084.37    19266.660000
4086.00    19751.490000
4087.62    19354.210000
4089.24    18344.820000
4090.87    19222.790000
4092.49    17891.170000
4094.12    18509.940000
4095.74    18510.680000
4097.36    18346.660000
4098.99    19500.440000
4100.61    19103.170000
4102.24    18748.450000
4103.86    19285.180000
4105.48    18767.590000
4107.11    19625.550000
4108.73    19675.120000
4110.36    20855.850000
4111.98    20730.660000
4113.60    21418.870000
4115.23    22110.850000
4116.85    21712.240000
4118.48    21555.250000
4120.10    22562.270000
4121.73    21524.680000
4123.35    20368.150000
4124.97    20202.620000
4126.60    19387.370000
4128.22    18911.630000
4129.85    19369.390000
4131.47    18323.490000
4133.09    18178.560000
4134.72    19718.940000
4136.34    20282.590000
4137.97    19402.620000
4139.59    20198.870000
4141.21    20363.540000
4142.84    20316.380000
4144.46    20493.380000
4146.09    19779.980000
4147.71    19817.460000
4149.33    20855.800000
4150.96    19392.920000
4152.58    20211.350000
4154.21    20333.560000
4155.83    19748.980000
4157.45    19988.450000
4159.08    19898.960000
4160.70    19511.360000
4162.33    18578.010000
4163.95    19630.570000
4165.57    18037.580000
4167.20    19164.470000
4168.82    19897.490000
4170.45    19342.080000
4172.07    18107.910000
4173.69    18763.120000
4175.32    18904.680000
4176.94    17757.450000
4178.57    19473.100000
4180.19    17944.230000
4181.81    19146.260000
4183.44    18684.610000
4185.06    18859.170000
4186.69    19090.650000
4188.31    19250.730000
4189.94    20218.880000
4191.56    19881.200000
4193.18    19574.590000
4194.81    19994.480000
4196.43    19786.250000
4198.06    19934.150000
4199.68    19032.630000
4201.30    18547.630000
4202.93    18476.520000
4204.55    18188.090000
4206.18    18430.480000
4207.80    17947.370000
4209.42    17931.310000
4211.05    19088.410000
4212.67    18963.600000
4214.30    18810.470000
4215.92    19720.180000
4217.54    19672.270000
4219.17    20602.130000
4220.79    18997.800000
4222.41    20005.030000
4224.04    19640.350000
4225.66    19496.360000
4227.29    18735.700000
4228.91    18124.710000
4230.54    19169.130000
4232.16    19111.880000
4233.78    20157.710000
4235.41    20717.840000
4237.03    20186.310000
4238.66    20514.110000
4240.28    20537.900000
4241.90    20595.570000
4243.53    20464.430000
4245.15    19938.120000
4246.78    20972.370000
4248.40    21159.540000
4250.02    22185.210000
4251.65    20502.000000
4253.27    19948.770000
4254.90    18576.780000
4256.52    17894.480000
4258.14    18932.730000
4259.77    18952.380000
4261.39    19635.810000
4263.02    20360.390000
4264.64    20727.900000
4266.26    21251.110000
4267.89    22142.280000
4269.51    21916.640000
4271.14    22642.340000
4272.76    22447.910000
4274.39    21697.830000
4276.01    22639.440000
4277.63    22539.730000
4279.26    21748.810000
4280.88    20823.390000
4282.51    20393.870000
4284.13    21116.030000
4285.75    21278.120000
4287.38    21307.720000
4289.00    21948.610000
4290.62    21778.000000
4292.25    22583.300000
4293.87    22560.830000
4295.50    22282.470000
4297.12    22466.650000
4298.74    21071.390000
4300.37    20571.380000
4301.99    19955.790000
4303.62    19228.130000
4305.24    19454.630000
4306.86    19695.760000
4308.49    20289.520000
4310.11    20896.440000
4311.74    21326.060000
4313.36    21369.850000
4314.99    20786.380000
4316.61    20633.770000
4318.23    20572.980000
4319.86    19568.460000
4321.48    19258.830000
4323.11    19689.630000
4324.73    19076.720000
4326.35    18920.650000
4327.98    18360.310000
4329.60    16616.880000
4331.23    16078.030000
4332.85    15921.460000
4334.47    15633.090000
4336.10    15506.150000
4337.72    15412.120000
4339.35    15659.400000
4340.97    16789.940000
4342.59    18700.270000
4344.22    20870.100000
4345.84    22934.550000
4347.47    23799.480000
4349.09    24262.720000
4350.71    24855.110000
4352.34    24397.960000
4353.96    23012.010000
4355.59    22241.850000
4357.21    22678.120000
4358.84    23607.960000
4360.46    24046.060000
4362.08    24886.090000
4363.71    25149.010000
4365.33    25170.600000
4366.95    24584.420000
4368.58    23616.290000
4370.20    23007.990000
4371.83    23258.400000
4373.45    22792.640000
4375.07    23432.220000
4376.70    24734.830000
4378.32    25905.010000
4379.95    25443.860000
4381.57    25059.090000
4383.19    24727.310000
4384.82    24234.670000
4386.44    23980.710000
4388.07    24070.620000
4389.69    25020.470000
4391.31    25179.540000
4392.94    26091.070000
4394.56    26774.140000
4396.19    27086.090000
4397.81    26388.270000
4399.44    25985.570000
4401.06    24899.130000
4402.68    25161.460000
4404.31    24473.810000
4405.93    24334.340000
4407.56    23996.740000
4409.18    22974.980000
4410.80    23537.420000
4412.43    21993.150000
4414.05    21427.800000
4415.68    21807.110000
4417.30    21956.320000
4418.92    22735.270000
4420.55    23365.330000
4422.17    23651.740000
4423.80    24943.610000
4425.42    24821.450000
4427.04    24352.600000
4428.67    24903.810000
4430.29    26344.410000
4431.92    24300.370000
4433.54    24138.290000
4435.16    24517.680000
4436.79    23255.570000
4438.41    24152.010000
4440.04    23970.010000
4441.66    25298.600000
4443.28    26554.150000
4444.91    27051.330000
4446.53    27787.990000
4448.16    27225.870000
4449.78    27480.980000
4451.40    27208.790000
4453.03    28507.740000
4454.65    27185.360000
4456.28    27671.620000
4457.90    28466.700000
4459.52    27236.050000
4461.15    27108.650000
4462.77    27317.130000
4464.40    26935.440000
4466.02    26937.580000
4467.65    27549.870000
4469.27    26995.500000
4470.89    27152.610000
4472.52    26887.670000
4474.14    27893.510000
4475.77    28563.930000
4477.39    29237.530000
4479.01    29933.330000
4480.64    30041.940000
4482.26    28995.660000
4483.89    28747.430000
4485.51    28458.790000
4487.13    26848.120000
4488.76    26287.210000
4490.38    26202.150000
4492.01    26939.350000
4493.63    26506.810000
4495.25    27324.150000
4496.88    28413.200000
4498.50    29052.390000
4500.13    28920.080000
4501.75    29804.130000
4503.38    30185.830000
4505.00    31939.560000
4506.62    31318.230000
4508.25    31682.800000
4509.87    31286.760000
4511.49    30622.380000
4513.12    30958.340000
4514.74    31580.320000
4516.37    32073.720000
4517.99    31417.330000
4519.61    31403.890000
4521.24    30524.820000
4522.86    30097.220000
4524.49    30673.550000
4526.11    30247.680000
4527.73    30131.590000
4529.36    30838.090000
4530.98    30645.980000
4532.61    32719.230000
4534.23    33797.170000
4535.85    34295.760000
4537.48    34273.200000
4539.10    34046.450000
4540.73    34028.430000
4542.35    34219.870000
4543.98    33542.760000
4545.60    32976.000000
4547.22    33142.100000
4548.85    32316.250000
4550.47    32432.740000
4552.10    32591.660000
4553.72    32224.640000
4555.34    31524.510000
4556.97    29871.210000
4558.59    29253.720000
4560.22    28454.820000
4561.84    27494.700000
4563.46    27000.510000
4565.09    28304.780000
4566.71    29219.310000
4568.34    29988.890000
4569.96    30908.690000
4571.58    30533.160000
4573.21    31298.480000
4574.83    31060.660000
4576.46    30899.510000
4578.08    31595.110000
4579.70    30865.610000
4581.33    31186.340000
4582.95    31482.970000
4584.58    30529.380000
4586.20    30899.000000
4587.82    32687.290000
4589.45    33127.640000
4591.07    33390.510000
4592.70    34038.880000
4594.32    33643.360000
4595.94    33482.550000
4597.57    33301.140000
4599.19    32893.120000
4600.82    33136.540000
4602.44    33960.930000
4604.06    34300.510000
4605.69    33289.500000
4607.31    33040.520000
4608.94    33126.020000
4610.56    32831.430000
4612.19    32467.060000
4613.81    31827.460000
4615.43    31894.560000
4617.06    32471.950000
4618.68    32718.880000
4620.31    32571.070000
4621.93    32960.320000
4623.55    32657.130000
4625.18    32397.760000
4626.80    32630.240000
4628.43    31519.310000
4630.05    31743.180000
4631.67    32513.640000
4633.30    31734.480000
4634.92    32363.630000
4636.55    33322.780000
4638.17    33280.020000
4639.79    33862.320000
4641.42    34077.390000
4643.04    34574.570000
4644.67    34531.160000
4646.29    34168.950000
4647.91    34109.410000
4649.54    34355.380000
4651.16    34283.500000
4652.79    35207.570000
4654.41    34733.870000
4656.03    34186.180000
4657.66    34815.950000
4659.28    34439.060000
4660.91    34140.680000
4662.53    34752.240000
4664.15    34634.890000
4665.78    33309.690000
4667.40    32193.430000
4669.03    32135.600000
4670.65    32588.370000
4672.27    31743.350000
4673.90    30993.890000
4675.52    31806.220000
4677.15    31247.610000
4678.77    30541.430000
4680.40    31250.300000
4682.02    30500.780000
4683.64    30335.520000
4685.27    31595.550000
4686.89    32077.920000
4688.52    31886.400000
4690.14    32605.930000
4691.76    32504.080000
4693.39    32721.430000
4695.01    32018.710000
4696.64    31514.950000
4698.26    31099.790000
4699.88    30879.100000
4701.51    29902.400000
4703.13    29891.350000
4704.76    29895.240000
4706.38    29762.150000
4708.00    30725.290000
4709.63    30107.380000
4711.25    30292.010000
4712.88    30639.730000
4714.50    31112.650000
4716.12    31034.110000
4717.75    31277.580000
4719.37    30776.180000
4721.00    31481.550000
4722.62    30846.230000
4724.24    31627.960000
4725.87    29539.280000
4727.49    30750.370000
4729.12    31740.990000
4730.74    30901.310000
4732.36    30196.500000
4733.99    28904.640000
4735.61    29927.970000
4737.24    29685.500000
4738.86    29816.940000
4740.48    29312.200000
4742.11    30304.770000
4743.73    29944.970000
4745.36    30765.830000
4746.98    31147.090000
4748.60    32205.180000
4750.23    31797.570000
4751.85    31861.460000
4753.48    32780.480000
4755.10    32382.770000
4756.73    33061.130000
4758.35    32093.380000
4759.97    32391.640000
4761.60    30911.880000
4763.22    30531.670000
4764.85    29476.410000
4766.47    30202.170000
4768.09    30659.010000
4769.72    30790.910000
4771.34    31764.040000
4772.97    31720.960000
4774.59    32195.700000
4776.21    32588.920000
4777.84    33317.080000
4779.46    33758.890000
4781.09    32999.240000
4782.71    33467.070000
4784.33    32332.850000
4785.96    33145.910000
4787.58    32621.540000
4789.21    32378.110000
4790.83    32279.570000
4792.45    31877.530000
4794.08    31255.000000
4795.70    30857.440000
4797.33    30939.610000
4798.95    31208.240000
4800.57    30976.480000
4802.20    31007.260000
4803.82    31383.880000
4805.45    31385.060000
4807.07    32514.420000
4808.69    32190.920000
4810.32    33400.540000
4811.94    33114.680000
4813.57    31798.000000
4815.19    32172.950000
4816.81    32434.160000
4818.44    31093.550000
4820.06    31889.390000
4821.69    32405.000000
4823.31    31455.080000
4824.94    32248.970000
4826.56    32196.760000
4828.18    31863.860000
4829.81    32292.410000
4831.43    33610.600000
4833.06    33549.160000
4834.68    33184.380000
4836.30    32730.850000
4837.93    32854.380000
4839.55    32421.340000
4841.18    32688.530000
4842.80    32533.040000
4844.42    31632.850000
4846.05    32356.290000
4847.67    33061.300000
4849.30    33705.170000
4850.92    33493.480000
4852.54    33569.150000
4854.17    33174.180000
4855.79    33086.910000
4857.42    33018.770000
4859.04    32851.920000
4860.66    32625.820000
4862.29    32539.140000
4863.91    32073.910000
4865.54    32426.750000
4867.16    32239.570000
4868.78    31744.910000
4870.41    32511.410000
4872.03    32267.190000
4873.66    32053.130000
4875.28    31965.210000
4876.90    31941.450000
4878.53    31951.020000
4880.15    32201.430000
4881.78    32057.460000
4883.40    32308.120000
4885.02    32410.940000
4886.65    31129.170000
4888.27    30381.740000
4889.90    30128.400000
4891.52    29845.920000
4893.15    29236.680000
4894.77    29759.220000
4896.39    29306.390000
4898.02    28595.550000
4899.64    28996.900000
4901.27    29330.240000
4902.89    29718.290000
4904.51    29880.470000
4906.14    29573.140000
4907.76    29912.000000
4909.39    30279.360000
4911.01    30925.620000
4912.63    32190.140000
4914.26    32172.700000
4915.88    31832.000000
4917.51    31796.740000
4919.13    30847.880000
4920.75    30496.630000
4922.38    30501.000000
4924.00    31165.490000
4925.63    31567.370000
4927.25    32156.660000
4928.87    32838.450000
4930.50    32867.370000
4932.12    34305.980000
4933.75    34723.400000
4935.37    33797.830000
4936.99    33567.410000
4938.62    33621.030000
4940.24    33865.920000
4941.87    34007.000000
4943.49    33130.510000
4945.11    32695.830000
4946.74    32721.610000
4948.36    32134.000000
4949.99    32277.600000
4951.61    31934.490000
4953.23    31141.450000
4954.86    31087.940000
4956.48    31438.750000
4958.11    31441.100000
4959.73    32105.630000
4961.35    32054.960000
4962.98    32396.660000
4964.60    33930.280000
4966.23    33621.710000
4967.85    33427.160000
4969.48    33247.420000
4971.10    33229.120000
4972.72    33038.460000
4974.35    32550.250000
4975.97    32826.110000
4977.60    33409.230000
4979.22    33666.410000
4980.84    34661.310000
4982.47    35375.070000
4984.09    34349.950000
4985.72    34373.480000
4987.34    34744.890000
4988.96    34000.440000
4990.59    33315.080000
4992.21    33456.280000
4993.84    33271.640000
4995.46    33473.540000
4997.08    32617.660000
4998.71    32657.660000
5000.33    32945.140000
5001.96    32640.290000
5003.58    32583.430000
5005.20    32694.880000
5006.83    32794.020000
5008.45    33135.190000
5010.08    32929.020000
5011.70    32476.060000
5013.32    31883.690000
5014.95    30882.530000
5016.57    30830.540000
5018.20    30350.480000
5019.82    30257.260000
5021.44    30828.790000
5023.07    31034.540000
5024.69    31546.230000
5026.32    31600.730000
5027.94    31840.510000
5029.56    31897.810000
5031.19    32186.690000
5032.81    31880.340000
5034.44    30864.280000
5036.06    30807.000000
5037.69    30823.710000
5039.31    30675.270000
5040.93    30871.980000
5042.56    31028.990000
5044.18    31632.670000
5045.81    31478.190000
5047.43    30815.200000
5049.05    29707.110000
5050.68    29165.910000
5052.30    29008.680000
5053.93    29236.160000
5055.55    29757.910000
5057.17    30012.170000
5058.80    30333.810000
5060.42    30118.820000
5062.05    30728.650000
5063.67    31334.990000
5065.29    31989.010000
5066.92    31927.730000
5068.54    31677.500000
5070.17    31461.900000
5071.79    31578.370000
5073.41    30226.560000
5075.04    29668.540000
5076.66    29646.460000
5078.29    30262.370000
5079.91    30337.220000
5081.53    30687.360000
5083.16    31205.680000
5084.78    31409.450000
5086.41    31094.290000
5088.03    31538.740000
5089.65    32035.460000
5091.28    32666.530000
5092.90    32553.850000
5094.53    32195.040000
5096.15    32668.370000
5097.77    32856.380000
5099.40    32412.290000
5101.02    31151.940000
5102.65    31585.200000
5104.27    31594.360000
5105.90    30958.100000
5107.52    30773.860000
5109.14    30230.220000
5110.77    30578.970000
5112.39    29987.360000
5114.02    30069.220000
5115.64    29766.000000
5117.26    29706.440000
5118.89    29713.520000
5120.51    29775.900000
5122.14    30512.500000
5123.76    30449.970000
5125.38    30606.490000
5127.01    30981.040000
5128.63    31598.850000
5130.26    31452.480000
5131.88    31694.450000
5133.50    30698.150000
5135.13    29896.740000
5136.75    29958.360000
5138.38    29829.670000
5140.00    29848.820000
5141.62    29390.850000
5143.25    30184.870000
5144.87    29853.550000
5146.50    30076.230000
5148.12    30760.810000
5149.74    30537.480000
5151.37    30811.230000
5152.99    32033.540000
5154.62    31459.280000
5156.24    30660.800000
5157.86    29947.910000
5159.49    29461.210000
5161.11    29129.390000
5162.74    29256.300000
5164.36    29188.530000
5165.98    28511.400000
5167.61    29593.800000
5169.23    30033.890000
5170.86    29888.860000
5172.48    29762.950000
5174.10    29724.500000
5175.73    29947.260000
5177.35    29567.700000
5178.98    28675.680000
5180.60    28830.330000
5182.23    28710.640000
5183.85    28731.430000
5185.47    28341.510000
5187.10    28556.120000
5188.72    28480.420000
5190.35    28841.290000
5191.97    28656.490000
5193.59    29243.920000
5195.22    29379.040000
5196.84    28649.470000
5198.47    27901.590000
5200.09    26612.660000
5201.71    25472.730000
5203.34    23951.320000
5204.96    22934.760000
5206.59    22576.940000
5208.21    22319.560000
5209.83    22704.310000
5211.46    23275.060000
5213.08    24138.380000
5214.71    24047.510000
5216.33    24267.460000
5217.95    24548.270000
5219.58    24652.050000
5221.20    24843.140000
5222.83    24996.770000
5224.45    26125.190000
5226.07    27218.340000
5227.70    28084.850000
5229.32    28987.220000
5230.95    29579.220000
5232.57    30068.120000
5234.19    30127.460000
5235.82    29489.920000
5237.44    29555.910000
5239.07    29744.600000
5240.69    29170.210000
5242.31    28676.110000
5243.94    27822.720000
5245.56    28262.810000
5247.19    27949.180000
5248.81    28973.390000
5250.44    29529.870000
5252.06    29978.360000
5253.68    30691.430000
5255.31    31421.650000
5256.93    31428.270000
5258.56    31134.420000
5260.18    30681.990000
5261.80    30373.050000
5263.43    30139.150000
5265.05    30486.170000
5266.68    30630.520000
5268.30    31086.140000
5269.92    30713.120000
5271.55    30954.590000
5273.17    32052.340000
5274.80    32123.760000
5276.42    32468.270000
