#Wavelength     Flux
#[Angstrom]   [Counts]
3932.25    1563.200000
3933.89    1035.786000
3935.52    1390.436000
3937.16    1377.193000
3938.79    1260.739000
3940.42    1349.175000
3942.06    1438.963000
3943.69    1038.379000
3945.32    1207.104000
3946.96    1277.650000
3948.59    887.705600
3950.23    1406.458000
3951.86    1185.105000
3953.49    1612.996000
3955.13    1405.999000
3956.76    1090.332000
3958.39    1074.191000
3960.03    1525.091000
3961.66    1158.167000
3963.30    1284.413000
3964.93    1619.055000
3966.56    1510.695000
3968.20    1477.001000
3969.83    1287.551000
3971.47    1405.763000
3973.10    1357.921000
3974.73    1395.791000
3976.37    1700.629000
3978.00    1084.997000
3979.64    1575.255000
3981.27    1489.635000
3982.90    1694.443000
3984.54    1566.278000
3986.17    1163.773000
3987.80    1391.684000
3989.44    1060.859000
3991.07    1271.577000
3992.71    1319.416000
3994.34    858.690000
3995.97    697.480000
3997.61    561.017900
3999.24    589.389000
4000.88    709.799300
4002.51    724.556200
4004.14    695.200900
4005.78    633.516100
4007.41    1320.526000
4009.04    921.172700
4010.68    1446.314000
4012.31    1459.508000
4013.95    1432.350000
4015.58    1548.310000
4017.21    1618.159000
4018.85    1737.080000
4020.48    1480.245000
4022.11    1736.370000
4023.75    1169.217000
4025.38    1170.229000
4027.02    1111.405000
4028.65    1151.502000
4030.28    1169.671000
4031.92    250.298000
4033.55    100.363800
4035.19    -383.716500
4036.82    -575.319800
4038.45    762.904500
4040.09    915.305700
4041.72    1226.122000
4043.36    1321.404000
4044.99    1285.730000
4046.62    1556.591000
4048.26    1922.947000
4049.89    2638.676000
4051.52    1987.107000
4053.16    1625.858000
4054.79    1715.252000
4056.43    1733.120000
4058.06    1716.977000
4059.69    1801.980000
4061.33    1985.684000
4062.96    1771.555000
4064.59    1801.266000
4066.23    2302.721000
4067.86    2214.128000
4069.50    1928.784000
4071.13    1894.529000
4072.76    1981.486000
4074.40    1795.714000
4076.03    1641.974000
4077.67    1926.025000
4079.30    2317.851000
4080.93    2249.280000
4082.57    1883.596000
4084.20    1569.412000
4085.84    1738.545000
4087.47    1956.342000
4089.10    2474.517000
4090.74    2557.413000
4092.37    1906.269000
4094.01    1852.588000
4095.64    2019.378000
4097.27    2288.587000
4098.91    2154.065000
4100.54    1889.276000
4102.17    2086.619000
4103.81    2138.237000
4105.44    2055.911000
4107.07    2171.511000
4108.71    1825.572000
4110.34    1683.631000
4111.98    1730.979000
4113.61    1864.012000
4115.24    2028.775000
4116.88    1957.647000
4118.51    2211.478000
4120.15    2277.553000
4121.78    2041.332000
4123.41    1954.760000
4125.05    1807.542000
4126.68    1741.605000
4128.31    1928.734000
4129.95    1803.066000
4131.58    1975.883000
4133.22    2049.518000
4134.85    1999.287000
4136.48    2042.824000
4138.12    1894.114000
4139.75    1779.109000
4141.39    1929.530000
4143.02    1799.464000
4144.65    1746.610000
4146.29    2129.020000
4147.92    2322.114000
4149.56    2427.415000
4151.19    2368.528000
4152.82    2187.794000
4154.46    2435.306000
4156.09    2360.587000
4157.73    2303.216000
4159.36    2247.321000
4160.99    2393.553000
4162.63    2409.063000
4164.26    2145.226000
4165.89    2101.473000
4167.53    1659.630000
4169.16    1750.377000
4170.80    1958.942000
4172.43    2038.313000
4174.06    1710.855000
4175.70    1769.849000
4177.33    2230.978000
4178.97    2120.675000
4180.60    2115.126000
4182.23    2187.012000
4183.87    2103.733000
4185.50    2241.513000
4187.13    2138.566000
4188.77    2193.813000
4190.40    2396.535000
4192.04    2544.854000
4193.67    2392.162000
4195.30    2127.018000
4196.94    2401.675000
4198.57    2254.182000
4200.20    1862.810000
4201.84    1827.442000
4203.47    1866.341000
4205.11    2131.310000
4206.74    2226.494000
4208.37    2032.045000
4210.01    1852.012000
4211.64    2075.897000
4213.27    2061.457000
4214.91    2157.896000
4216.54    2008.922000
4218.18    2063.943000
4219.81    2064.375000
4221.44    2076.974000
4223.08    2147.793000
4224.71    1984.661000
4226.35    1933.316000
4227.98    2230.056000
4229.61    2180.492000
4231.25    2168.382000
4232.88    2276.944000
4234.52    2091.454000
4236.15    2089.279000
4237.78    2386.746000
4239.42    2168.057000
4241.05    1895.966000
4242.69    1914.094000
4244.32    1884.921000
4245.95    1981.426000
4247.59    2000.255000
4249.22    1834.726000
4250.85    2124.781000
4252.49    2152.333000
4254.12    2161.719000
4255.76    2232.690000
4257.39    2196.763000
4259.02    2308.632000
4260.66    1999.770000
4262.29    2156.358000
4263.93    2148.640000
4265.56    2031.645000
4267.19    2033.758000
4268.83    1942.194000
4270.46    1889.013000
4272.09    1829.129000
4273.73    1841.232000
4275.36    2330.677000
4277.00    2676.403000
4278.63    2365.299000
4280.26    2577.163000
4281.90    2468.360000
4283.53    2102.556000
4285.16    1904.504000
4286.80    2106.492000
4288.43    2176.089000
4290.07    2208.444000
4291.70    2333.191000
4293.33    2306.528000
4294.97    1891.558000
4296.60    1735.550000
4298.24    1863.544000
4299.87    1968.754000
4301.50    2084.813000
4303.14    2446.296000
4304.77    2454.309000
4306.40    2195.985000
4308.04    2206.842000
4309.67    2235.384000
4311.31    2227.614000
4312.94    2306.087000
4314.57    2380.182000
4316.21    2165.640000
4317.84    1917.899000
4319.48    2220.976000
4321.11    2407.663000
4322.74    2263.380000
4324.38    2212.416000
4326.01    2493.065000
4327.65    2293.067000
4329.28    2366.380000
4330.91    2427.861000
4332.55    2161.074000
4334.18    2163.662000
4335.81    2381.175000
4337.45    2480.787000
4339.08    2363.017000
4340.72    2112.139000
4342.35    2005.977000
4343.98    2077.922000
4345.62    2151.101000
4347.25    2376.423000
4348.89    2335.099000
4350.52    2183.256000
4352.15    2054.522000
4353.79    2099.553000
4355.42    2092.476000
4357.05    1971.497000
4358.69    2134.412000
4360.32    1975.962000
4361.96    1911.587000
4363.59    2098.361000
4365.22    2104.794000
4366.86    2089.034000
4368.49    1989.286000
4370.12    2015.314000
4371.76    1774.142000
4373.39    1453.983000
4375.03    1527.657000
4376.66    1766.635000
4378.29    1793.304000
4379.93    1676.933000
4381.56    1616.568000
4383.20    1804.010000
4384.83    2102.890000
4386.46    2033.681000
4388.10    2312.026000
4389.73    2502.797000
4391.36    2694.455000
4393.00    2721.301000
4394.63    2476.416000
4396.27    2014.066000
4397.90    1969.465000
4399.53    2231.596000
4401.17    2199.677000
4402.80    2406.546000
4404.44    2753.766000
4406.07    2765.734000
4407.70    2681.764000
4409.34    2469.120000
4410.97    2359.411000
4412.60    2087.247000
4414.24    1943.725000
4415.87    2386.382000
4417.51    2571.594000
4419.14    2409.589000
4420.77    2451.860000
4422.41    2355.550000
4424.04    2360.086000
4425.68    2545.073000
4427.31    2338.341000
4428.94    2569.202000
4430.58    2631.625000
4432.21    2489.296000
4433.85    2573.560000
4435.48    2758.310000
4437.11    2756.423000
4438.75    2712.113000
4440.38    2515.795000
4442.02    2165.696000
4443.65    2271.797000
4445.28    2294.521000
4446.92    2318.562000
4448.55    2280.939000
4450.18    2195.006000
4451.82    2469.210000
4453.45    2487.369000
4455.09    2315.096000
4456.72    2082.639000
4458.35    2143.663000
4459.99    2051.076000
4461.62    2186.293000
4463.25    2291.498000
4464.89    2281.419000
4466.52    2369.391000
4468.16    2450.866000
4469.79    2472.138000
4471.42    2435.311000
4473.06    2604.251000
4474.69    2646.193000
4476.32    2334.299000
4477.96    2249.546000
4479.59    2188.070000
4481.23    2290.753000
4482.86    2342.574000
4484.49    2534.243000
4486.13    2804.162000
4487.76    2879.787000
4489.40    2780.771000
4491.03    2546.044000
4492.66    2636.563000
4494.30    2686.809000
4495.93    2773.641000
4497.56    2633.595000
4499.20    2589.302000
4500.83    2622.971000
4502.47    2565.821000
4504.10    2714.579000
4505.73    2813.000000
4507.37    2564.918000
4509.00    2414.417000
4510.64    2498.758000
4512.27    2715.139000
4513.90    2836.382000
4515.54    2707.502000
4517.17    2648.866000
4518.81    2778.320000
4520.44    2862.198000
4522.07    2814.759000
4523.71    3048.401000
4525.34    2943.591000
4526.98    2726.432000
4528.61    2615.705000
4530.24    2633.945000
4531.88    2724.258000
4533.51    2744.424000
4535.14    2698.608000
4536.78    2668.180000
4538.41    2775.765000
4540.05    2691.749000
4541.68    2624.504000
4543.31    3010.909000
4544.95    3063.128000
4546.58    2917.849000
4548.22    3243.668000
4549.85    3151.203000
4551.48    3184.197000
4553.12    3077.573000
4554.75    2768.353000
4556.38    2801.657000
4558.02    2912.942000
4559.65    2904.939000
4561.29    3018.187000
4562.92    3060.646000
4564.55    3037.418000
4566.19    2736.475000
4567.82    2962.274000
4569.45    3156.953000
4571.09    3015.757000
4572.72    2800.454000
4574.36    2728.699000
4575.99    2926.375000
4577.62    3124.356000
4579.26    3491.274000
4580.89    3445.639000
4582.52    3242.039000
4584.16    3295.664000
4585.79    3363.354000
4587.43    3309.202000
4589.06    3254.682000
4590.69    3115.736000
4592.33    3140.371000
4593.96    3153.472000
4595.60    2931.118000
4597.23    2876.276000
4598.86    3190.866000
4600.50    3101.649000
4602.13    2889.596000
4603.77    2710.826000
4605.40    2489.529000
4607.03    2154.221000
4608.67    2624.086000
4610.30    2752.960000
4611.94    2964.369000
4613.57    2904.909000
4615.20    3039.262000
4616.84    2922.563000
4618.47    3194.647000
4620.10    3128.551000
4621.74    2991.405000
4623.37    2772.529000
4625.01    2903.513000
4626.64    3102.134000
4628.27    2807.148000
4629.91    2670.699000
4631.54    2654.708000
4633.18    2960.245000
4634.81    3170.448000
4636.44    3158.076000
4638.08    3122.405000
4639.71    3220.375000
4641.34    3139.369000
4642.98    3179.542000
4644.61    3331.834000
4646.25    2930.002000
4647.88    2836.095000
4649.51    3288.130000
4651.15    3381.023000
4652.78    3075.666000
4654.41    2809.087000
4656.05    3213.912000
4657.68    3205.078000
4659.32    2948.048000
4660.95    2893.072000
4662.58    2952.646000
4664.22    2999.343000
4665.85    3094.446000
4667.49    2978.905000
4669.12    2867.620000
4670.75    2959.244000
4672.39    2970.466000
4674.02    2954.775000
4675.65    3108.606000
4677.29    2994.446000
4678.92    2935.706000
4680.56    3047.369000
4682.19    2925.701000
4683.82    3125.018000
4685.46    3190.840000
4687.09    3204.710000
4688.73    3278.433000
4690.36    3211.045000
4691.99    3090.044000
4693.63    3315.172000
4695.26    3351.658000
4696.90    3158.150000
4698.53    3020.574000
4700.16    2866.710000
4701.80    3192.424000
4703.43    3293.463000
4705.06    3130.605000
4706.70    3206.782000
4708.33    3135.970000
4709.97    3285.489000
4711.60    2976.555000
4713.23    2839.003000
4714.87    2897.601000
4716.50    3220.269000
4718.14    2818.873000
4719.77    3282.636000
4721.40    3212.058000
4723.04    3145.918000
4724.67    3057.738000
4726.30    2772.452000
4727.94    3132.748000
4729.57    3294.257000
4731.21    3030.069000
4732.84    3192.884000
4734.47    3201.233000
4736.11    3361.155000
4737.74    3000.848000
4739.38    3071.087000
4741.01    3243.860000
4742.64    2993.784000
4744.28    3216.135000
4745.91    2914.019000
4747.54    2709.614000
4749.18    2965.486000
4750.81    3943.578000
4752.45    3088.000000
4754.08    3301.152000
4755.71    3231.458000
4757.35    2863.872000
4758.98    2879.601000
4760.61    2811.953000
4762.25    2957.922000
4763.88    3166.067000
4765.52    3194.186000
4767.15    3041.548000
4768.78    3123.289000
4770.42    2994.700000
4772.05    3088.882000
4773.69    2896.096000
4775.32    2906.008000
4776.95    3015.901000
4778.59    2931.235000
4780.22    3024.433000
4781.85    3016.626000
4783.49    3028.367000
4785.12    3021.820000
4786.76    2749.953000
4788.39    2989.089000
4790.02    2744.969000
4791.66    2975.281000
4793.29    2983.854000
4794.93    3018.173000
4796.56    3035.028000
4798.19    3234.966000
4799.83    3215.638000
4801.46    3231.851000
4803.10    3129.164000
4804.73    3158.363000
4806.36    3112.467000
4808.00    3052.161000
4809.63    3014.672000
4811.26    3322.764000
4812.90    3183.188000
4814.53    3115.986000
4816.17    3160.308000
4817.80    3028.557000
4819.43    2928.815000
4821.07    3290.172000
4822.70    3119.758000
4824.34    3018.724000
4825.97    3283.657000
4827.60    3403.461000
4829.24    3116.954000
4830.87    3294.694000
4832.50    3349.513000
4834.14    2935.814000
4835.77    3137.444000
4837.41    3459.342000
4839.04    3219.415000
4840.67    3009.813000
4842.31    3077.778000
4843.94    3048.136000
4845.57    3357.906000
4847.21    2969.275000
4848.84    3052.508000
4850.48    3232.581000
4852.11    3068.261000
4853.74    3090.685000
4855.38    3207.070000
4857.01    3240.043000
4858.65    3134.247000
4860.28    2922.671000
4861.91    3164.093000
4863.55    3161.383000
4865.18    2920.999000
4866.81    3003.916000
4868.45    3045.916000
4870.08    3164.944000
4871.72    3232.056000
4873.35    3166.027000
4874.98    2959.330000
4876.62    3108.818000
4878.25    3272.350000
4879.89    3379.640000
4881.52    2912.154000
4883.15    3075.582000
4884.79    3439.861000
4886.42    3133.585000
4888.06    3111.614000
4889.69    3153.970000
4891.32    3297.175000
4892.96    2808.082000
4894.59    3397.290000
4896.23    2903.316000
4897.86    2994.274000
4899.49    3159.882000
4901.13    3080.154000
4902.76    3251.247000
4904.39    3275.523000
4906.03    3209.423000
4907.66    2988.982000
4909.30    3144.076000
4910.93    3097.918000
4912.56    2812.113000
4914.20    2911.884000
4915.83    2999.370000
4917.46    3091.476000
4919.10    2769.065000
4920.73    2853.576000
4922.37    3264.912000
4924.00    2792.091000
4925.63    3135.559000
4927.27    3124.167000
4928.90    3200.579000
4930.53    3145.066000
4932.17    3131.977000
4933.80    2997.550000
4935.44    2725.239000
4937.07    2860.906000
4938.70    2717.501000
4940.34    2903.205000
4941.97    2633.471000
4943.61    2596.012000
4945.24    2833.353000
4946.87    2703.635000
4948.51    2755.270000
4950.14    3358.426000
4951.77    2671.660000
4953.41    2991.295000
4955.04    2718.944000
4956.68    3261.683000
4958.31    3025.126000
4959.94    3254.977000
4961.58    2944.144000
4963.21    2867.253000
4964.85    2991.709000
4966.48    3008.228000
4968.11    3064.973000
4969.75    2825.386000
4971.38    2856.115000
4973.02    3104.766000
4974.65    3106.926000
4976.28    3071.402000
4977.92    3266.855000
4979.55    3351.093000
4981.19    3134.936000
4982.82    3118.430000
4984.45    3089.028000
4986.09    3026.706000
4987.72    3034.976000
4989.35    3056.839000
4990.99    3014.460000
4992.62    3075.684000
4994.26    3075.277000
4995.89    2968.094000
4997.52    3040.879000
4999.16    2849.101000
5000.79    2857.124000
5002.43    2808.781000
5004.06    2935.688000
5005.69    2894.500000
5007.33    2908.752000
5008.96    2951.385000
5010.59    3267.283000
5012.23    3337.495000
5013.86    3288.544000
5015.50    3047.211000
5017.13    3171.523000
5018.76    2943.299000
5020.40    3093.247000
5022.03    3013.300000
5023.66    2886.896000
5025.30    2874.363000
5026.93    3245.580000
5028.57    3235.761000
5030.20    3116.890000
5031.83    3149.348000
5033.47    3293.967000
5035.10    3121.649000
5036.73    3260.973000
5038.37    2976.430000
5040.00    2974.344000
5041.64    3064.269000
5043.27    3021.751000
5044.90    2882.827000
5046.54    3000.678000
5048.17    3051.067000
5049.81    2910.170000
5051.44    2968.646000
5053.07    2993.570000
5054.71    2977.686000
5056.34    2929.840000
5057.98    3148.241000
5059.61    3230.049000
5061.24    2992.077000
5062.88    2957.211000
5064.51    2832.712000
5066.15    2725.758000
5067.78    2682.696000
5069.41    2815.370000
5071.05    3225.657000
5072.68    3078.805000
5074.31    2975.109000
5075.95    3002.241000
5077.58    2964.106000
5079.22    3087.506000
5080.85    3041.692000
5082.48    2936.952000
5084.12    2628.103000
5085.75    2941.375000
5087.39    3132.844000
5089.02    3048.735000
5090.65    3204.762000
5092.29    2844.001000
5093.92    2952.515000
5095.55    3054.076000
5097.19    2658.397000
5098.82    2552.058000
5100.46    2691.502000
5102.09    2762.885000
5103.72    2799.306000
5105.36    2892.688000
5106.99    2790.253000
5108.62    2855.010000
5110.26    2984.591000
5111.89    2985.110000
5113.53    2960.193000
5115.16    2883.403000
5116.79    3061.059000
5118.43    3067.292000
5120.06    2930.017000
5121.70    2963.881000
5123.33    2771.764000
5124.96    2564.100000
5126.60    2514.718000
5128.23    3015.430000
5129.86    2885.005000
5131.50    2682.295000
5133.13    2761.348000
5134.77    2886.160000
5136.40    2994.387000
5138.03    2954.127000
5139.67    3113.268000
5141.30    2955.378000
5142.94    2936.951000
5144.57    2995.249000
5146.20    3096.751000
5147.84    3099.675000
5149.47    2981.197000
5151.10    3123.715000
5152.74    2912.455000
5154.37    2764.272000
5156.01    2670.266000
5157.64    3000.088000
5159.27    2804.603000
5160.91    2961.519000
5162.54    3120.685000
5164.18    2804.538000
5165.81    2503.205000
5167.44    2696.730000
5169.08    3090.602000
5170.71    2854.873000
5172.35    2895.812000
5173.98    2943.035000
5175.61    2828.234000
5177.25    2992.383000
5178.88    3081.323000
5180.51    2966.025000
5182.15    2970.650000
5183.78    3002.595000
5185.42    2984.714000
5187.05    2571.480000
5188.68    2756.234000
5190.32    2861.253000
5191.95    2743.358000
5193.59    2955.735000
5195.22    2906.272000
5196.85    2767.301000
5198.49    2956.913000
5200.12    3024.066000
5201.75    3046.010000
5203.39    3268.530000
5205.02    2833.675000
5206.66    2955.721000
5208.29    2903.826000
5209.92    2878.664000
5211.56    2570.131000
5213.19    2623.718000
5214.82    2604.172000
5216.46    2768.531000
5218.09    2679.675000
5219.73    2947.559000
5221.36    2907.401000
5222.99    3145.711000
5224.63    3001.625000
5226.26    2811.490000
5227.90    3009.672000
5229.53    2705.192000
5231.16    2751.301000
5232.80    2699.105000
5234.43    2744.971000
5236.06    2922.301000
5237.70    2731.842000
5239.33    2469.286000
5240.97    2483.084000
5242.60    2575.798000
5244.23    2540.254000
5245.87    2877.255000
5247.50    2717.094000
5249.14    2755.140000
5250.77    2662.371000
5252.40    2565.977000
5254.04    2073.267000
5255.67    2137.317000
5257.31    2098.574000
5258.94    2266.037000
5260.57    2223.634000
5262.21    2342.334000
5263.84    2133.424000
5265.48    2241.489000
5267.11    2030.529000
5268.74    2475.292000
5270.38    2277.793000
5272.01    2307.438000
5273.64    2438.199000
5275.28    2453.344000
5276.91    2503.620000
5278.55    2669.243000
5280.18    2626.293000
5281.81    2515.159000
5283.45    2669.713000
5285.08    2616.183000
5286.71    2736.120000
5288.35    2869.500000
5289.98    2745.783000
5291.62    2735.573000
5293.25    2700.912000
5294.88    2578.266000
5296.52    2513.446000
5298.15    2567.981000
5299.78    2596.553000
5301.42    2602.169000
5303.05    2799.140000
5304.69    2696.561000
5306.32    2784.767000
5307.95    2859.099000
5309.59    2809.815000
5311.22    2603.762000
5312.86    2731.565000
5314.49    2668.779000
5316.12    2664.878000
5317.76    2587.490000
5319.39    2874.413000
5321.02    3080.082000
5322.66    2937.678000
5324.29    2886.652000
5325.93    2967.859000
5327.56    3109.552000
5329.19    3214.575000
5330.83    3031.487000
5332.46    2823.174000
5334.10    2833.924000
5335.73    2851.107000
5337.36    2809.972000
5339.00    2880.601000
5340.63    2657.944000
5342.27    2770.561000
5343.90    2919.460000
5345.53    2845.087000
5347.17    3059.440000
5348.80    2973.783000
