#Wavelength     Flux
#[Angstrom]   [Counts]
3913.05     0.000000
3914.68     0.000000
3916.32     0.000000
3917.95     0.000000
3919.59     0.000000
3921.23     0.000000
3922.86     0.000000
3924.50     0.000000
3926.14     0.000000
3927.77     0.000000
3929.41     0.000000
3931.04     0.000000
3932.68     0.000000
3934.32     0.000000
3935.95     0.000000
3937.59     0.000000
3939.22     0.000000
3940.86     0.000000
3942.50     0.000000
3944.13     0.000000
3945.77     0.000000
3947.41    4826.245000
3949.04    4946.832000
3950.68    5109.221000
3952.31    5203.689000
3953.95    4831.664000
3955.59    4910.809000
3957.22    5178.310000
3958.86    4713.173000
3960.49    5074.850000
3962.13    5642.737000
3963.77    5829.867000
3965.40    6077.055000
3967.04    5887.687000
3968.68    5538.999000
3970.31    5860.779000
3971.95    5122.503000
3973.59    4781.780000
3975.22    4324.164000
3976.86    4455.261000
3978.49    4111.474000
3980.13    3570.165000
3981.77    3153.637000
3983.40    3106.673000
3985.04    2729.270000
3986.67    2473.598000
3988.31    2225.312000
3989.95    2566.680000
3991.58    2970.007000
3993.22    3496.272000
3994.86    3609.864000
3996.49    3534.907000
3998.13    4606.463000
3999.76    4753.982000
4001.40    4897.252000
4003.04    5753.643000
4004.67    5788.823000
4006.31    5673.353000
4007.95    5703.100000
4009.58    5774.501000
4011.22    5381.959000
4012.85    4818.649000
4014.49    4562.728000
4016.13    3723.008000
4017.76    3266.778000
4019.40    3136.068000
4021.03    2781.733000
4022.67    2733.634000
4024.31    2615.314000
4025.94    3368.716000
4027.58    4119.847000
4029.22    4596.019000
4030.85    5163.526000
4032.49    6072.703000
4034.12    6236.527000
4035.76    6168.328000
4037.40    6870.364000
4039.03    6979.990000
4040.67    6941.513000
4042.30    7027.522000
4043.94    7699.998000
4045.58    7762.488000
4047.21    7699.363000
4048.85    7771.216000
4050.49    7515.416000
4052.12    7766.705000
4053.76    7912.017000
4055.39    7885.361000
4057.03    8087.189000
4058.67    8055.216000
4060.30    7542.088000
4061.94    7576.723000
4063.58    7893.271000
4065.21    7844.325000
4066.85    8317.095000
4068.49    8196.739000
4070.12    8281.954000
4071.76    8242.699000
4073.39    7860.779000
4075.03    8049.021000
4076.67    8676.060000
4078.30    8440.874000
4079.94    7811.097000
4081.57    8180.892000
4083.21    7911.488000
4084.85    7824.686000
4086.48    7265.932000
4088.12    7673.233000
4089.76    7876.579000
4091.39    8406.346000
4093.03    7974.117000
4094.66    7389.639000
4096.30    7520.607000
4097.94    7313.839000
4099.57    7090.473000
4101.21    7791.975000
4102.85    7628.485000
4104.48    7416.791000
4106.12    7992.803000
4107.75    7516.991000
4109.39    7674.559000
4111.03    7424.082000
4112.66    6940.031000
4114.30    7167.312000
4115.94    7055.048000
4117.57    7039.765000
4119.21    7174.905000
4120.84    7163.836000
4122.48    7544.106000
4124.12    7408.504000
4125.75    7618.182000
4127.39    7323.546000
4129.02    7318.813000
4130.66    7305.723000
4132.30    7271.977000
4133.93    7665.126000
4135.57    7948.634000
4137.20    8186.072000
4138.84    8563.077000
4140.48    8150.094000
4142.11    9071.130000
4143.75    8962.186000
4145.39    8636.675000
4147.02    8607.950000
4148.66    7985.486000
4150.30    8102.786000
4151.93    7543.108000
4153.57    7745.884000
4155.20    7562.645000
4156.84    6652.559000
4158.48    7281.253000
4160.11    7147.080000
4161.75    6871.763000
4163.39    7603.906000
4165.02    7859.681000
4166.66    7701.491000
4168.29    7545.048000
4169.93    7725.917000
4171.56    7913.859000
4173.20    7576.391000
4174.84    7665.989000
4176.47    8180.450000
4178.11    7564.089000
4179.75    7814.910000
4181.38    7825.932000
4183.02    7719.583000
4184.65    7854.010000
4186.29    7433.284000
4187.93    7383.051000
4189.56    7363.839000
4191.20    7692.265000
4192.84    7828.803000
4194.47    7440.076000
4196.11    7844.207000
4197.74    7393.814000
4199.38    7028.804000
4201.02    7060.500000
4202.65    7055.631000
4204.29    7000.764000
4205.93    6724.582000
4207.56    6784.819000
4209.20    7205.031000
4210.83    7281.546000
4212.47    7402.987000
4214.11    7153.819000
4215.74    7476.638000
4217.38    7549.861000
4219.02    7823.991000
4220.65    8263.565000
4222.29    7680.220000
4223.92    7369.825000
4225.56    7360.153000
4227.20    7241.525000
4228.83    7221.320000
4230.47    7255.877000
4232.10    7338.777000
4233.74    7066.751000
4235.38    7046.145000
4237.01    7340.885000
4238.65    7327.095000
4240.29    7449.957000
4241.92    7711.511000
4243.56    7618.609000
4245.19    7973.733000
4246.83    7737.268000
4248.47    7852.296000
4250.10    7513.089000
4251.74    7494.556000
4253.38    7555.576000
4255.01    7449.973000
4256.65    7454.773000
4258.28    7455.567000
4259.92    7280.583000
4261.56    7829.574000
4263.19    8195.056000
4264.83    8403.523000
4266.47    8107.099000
4268.10    7941.022000
4269.74    8073.044000
4271.37    8284.886000
4273.01    8321.436000
4274.65    8064.003000
4276.28    8172.314000
4277.92    7949.660000
4279.56    7935.169000
4281.19    7543.020000
4282.83    6810.406000
4284.46    6856.470000
4286.10    7326.419000
4287.74    7662.313000
4289.37    7941.428000
4291.01    8137.753000
4292.65    8216.558000
4294.28    8037.044000
4295.92    8301.354000
4297.55    8833.666000
4299.19    8668.744000
4300.83    8828.353000
4302.46    9091.748000
4304.10    9014.469000
4305.73    8655.332000
4307.37    8467.804000
4309.01    8449.185000
4310.64    8181.639000
4312.28    8188.097000
4313.92    8062.022000
4315.55    8170.628000
4317.19    8427.672000
4318.82    8742.400000
4320.46    8910.843000
4322.10    8737.641000
4323.73    8840.591000
4325.37    8900.108000
4327.01    8166.533000
4328.64    7687.775000
4330.28    7558.027000
4331.91    7602.828000
4333.55    7826.293000
4335.19    8054.898000
4336.82    8334.101000
4338.46    8195.691000
4340.10    8205.949000
4341.73    8398.779000
4343.37    8298.246000
4345.00    8201.119000
4346.64    7796.536000
4348.28    7904.365000
4349.91    7607.766000
4351.55    7422.751000
4353.19    7428.592000
4354.82    7069.848000
4356.46    6743.432000
4358.09    6478.654000
4359.73    6310.167000
4361.36    6154.433000
4363.00    5806.321000
4364.64    5946.375000
4366.27    6215.908000
4367.91    6686.849000
4369.55    7460.759000
4371.18    8110.216000
4372.82    8774.166000
4374.45    9435.526000
4376.09    9973.088000
4377.73    10067.960000
4379.36    9791.997000
4381.00    9369.703000
4382.64    8765.423000
4384.27    8824.792000
4385.91    9022.506000
4387.55    9614.296000
4389.18    10305.290000
4390.82    10611.970000
4392.45    10262.130000
4394.09    9573.597000
4395.73    9469.740000
4397.36    9257.350000
4399.00    9262.025000
4400.63    9407.036000
4402.27    9345.516000
4403.91    10036.130000
4405.54    9763.262000
4407.18    9802.039000
4408.81    9878.688000
4410.45    9849.407000
4412.09    9900.618000
4413.72    9618.581000
4415.36    9918.974000
4417.00    10135.660000
4418.63    10264.150000
4420.27    10595.650000
4421.90    10577.250000
4423.54    10561.600000
4425.18    10450.570000
4426.81    10154.380000
4428.45    9931.853000
4430.09    9588.856000
4431.72    9790.209000
4433.36    9559.363000
4434.99    9403.993000
4436.63    9383.995000
4438.27    8901.368000
4439.90    9062.333000
4441.54    8806.184000
4443.18    8379.854000
4444.81    8628.716000
4446.45    8570.434000
4448.08    8870.219000
4449.72    9573.552000
4451.36    9723.503000
4452.99    9426.331000
4454.63    9635.849000
4456.27    9798.909000
4457.90    9627.860000
4459.54    9974.211000
4461.17    9853.678000
4462.81    9644.442000
4464.45    9294.595000
4466.08    9325.641000
4467.72    10193.990000
4469.35    10470.190000
4470.99    10324.240000
4472.63    10139.460000
4474.26    10456.290000
4475.90    10743.710000
4477.54    10576.140000
4479.17    10667.990000
4480.81    11217.700000
4482.44    11168.100000
4484.08    10718.710000
4485.72    10816.260000
4487.35    10564.760000
4488.99    10446.650000
4490.62    11970.630000
4492.26    11074.650000
4493.90    10756.220000
4495.53    10739.950000
4497.17    10680.370000
4498.81    10989.500000
4500.44    11064.670000
4502.08    10927.330000
4503.72    11593.760000
4505.35    11733.270000
4506.99    11560.950000
4508.62    12055.330000
4510.26    12115.650000
4511.90    11603.760000
4513.53    11098.250000
4515.17    10341.290000
4516.81    10167.770000
4518.44    9977.258000
4520.08    10238.170000
4521.71    10688.540000
4523.35    10843.360000
4524.99    11312.390000
4526.62    11019.430000
4528.26    11078.360000
4529.90    11476.920000
4531.53    11609.220000
4533.17    12013.350000
4534.80    12299.350000
4536.44    12176.610000
4538.08    12230.540000
4539.71    12186.690000
4541.35    12202.360000
4542.98    12455.690000
4544.62    12261.960000
4546.26    12059.110000
4547.89    12326.000000
4549.53    12045.490000
4551.17    11872.310000
4552.80    11503.120000
4554.44    11530.210000
4556.07    11571.150000
4557.71    11663.790000
4559.35    11946.710000
4560.98    12544.290000
4562.62    12822.500000
4564.26    13054.350000
4565.89    13238.710000
4567.53    13164.420000
4569.16    13562.120000
4570.80    13066.910000
4572.44    13220.520000
4574.07    13072.530000
4575.71    12863.820000
4577.35    12977.220000
4578.98    12645.910000
4580.62    12584.960000
4582.25    12753.990000
4583.89    12389.040000
4585.53    11631.940000
4587.16    11561.470000
4588.80    11337.850000
4590.43    10641.450000
4592.07    10731.590000
4593.71    11421.040000
4595.34    11278.250000
4596.98    11324.880000
4598.61    11645.960000
4600.25    12222.380000
4601.89    12317.390000
4603.52    12053.450000
4605.16    12208.790000
4606.80    12242.580000
4608.43    12365.210000
4610.07    12252.200000
4611.70    12105.610000
4613.34    12339.010000
4614.98    12387.870000
4616.61    12553.550000
4618.25    13063.590000
4619.89    13229.990000
4621.52    13013.730000
4623.16    12850.880000
4624.79    12874.710000
4626.43    13023.950000
4628.07    12900.590000
4629.70    13052.690000
4631.34    13324.340000
4632.98    13364.320000
4634.61    12928.250000
4636.25    13138.280000
4637.88    12905.760000
4639.52    12841.930000
4641.16    12980.790000
4642.79    12946.970000
4644.43    12365.950000
4646.06    12523.450000
4647.70    12949.250000
4649.34    12824.620000
4650.97    12816.750000
4652.61    12574.070000
4654.25    12693.720000
4655.88    12528.310000
4657.52    12875.970000
4659.15    12584.700000
4660.79    12863.730000
4662.43    12834.950000
4664.06    12990.740000
4665.70    12604.900000
4667.34    13621.030000
4668.97    13237.030000
4670.61    13841.580000
4672.24    13442.680000
4673.88    13925.970000
4675.52    14160.070000
4677.15    14217.260000
4678.79    14180.360000
4680.43    13988.810000
4682.06    13822.290000
4683.70    14047.560000
4685.33    14058.490000
4686.97    13761.020000
4688.61    13843.360000
4690.24    13541.530000
4691.88    13925.620000
4693.52    13770.980000
4695.15    13747.260000
4696.79    13049.350000
4698.42    13012.460000
4700.06    13047.700000
4701.70    12747.150000
4703.33    12604.550000
4704.97    12773.500000
4706.60    12293.900000
4708.24    12681.440000
4709.88    12603.500000
4711.51    12429.340000
4713.15    12762.880000
4714.79    12659.820000
4716.42    12821.350000
4718.06    12810.420000
4719.69    13504.320000
4721.33    13247.350000
4722.97    13397.820000
4724.60    13067.990000
4726.24    12615.730000
4727.88    12709.840000
4729.51    12287.140000
4731.15    12351.390000
4732.78    12555.560000
4734.42    12388.900000
4736.06    12566.670000
4737.69    12876.060000
4739.33    12842.090000
4740.97    12426.740000
4742.60    12746.120000
4744.24    12281.580000
4745.87    12301.390000
4747.51    12398.150000
4749.15    12434.260000
4750.78    12702.600000
4752.42    12909.690000
4754.06    12747.630000
4755.69    12867.480000
4757.33    12611.860000
4758.96    12641.590000
4760.60    12933.770000
4762.24    12378.870000
4763.87    12178.460000
4765.51    12356.320000
4767.15    12571.030000
4768.78    12221.910000
4770.42    12298.590000
4772.05    12311.640000
4773.69    12524.650000
4775.33    12767.540000
4776.96    12786.220000
4778.60    13079.170000
4780.23    13056.210000
4781.87    13385.690000
4783.51    14015.740000
4785.14    14135.670000
4786.78    13850.090000
4788.41    13875.950000
4790.05    13647.610000
4791.69    13130.540000
4793.32    12934.100000
4794.96    12908.880000
4796.60    13311.330000
4798.23    13140.280000
4799.87    13299.730000
4801.51    13578.470000
4803.14    14053.920000
4804.78    13976.440000
4806.41    13892.510000
4808.05    13897.830000
4809.69    13938.480000
4811.32    14041.170000
4812.96    14295.190000
4814.59    14427.140000
4816.23    14097.900000
4817.87    14038.030000
4819.50    14324.870000
4821.14    13967.800000
4822.77    13577.060000
4824.41    13446.410000
4826.05    13262.970000
4827.68    13255.010000
4829.32    13567.790000
4830.96    13504.200000
4832.59    13220.060000
4834.23    13650.540000
4835.86    13743.800000
4837.50    13777.540000
4839.14    14035.160000
4840.77    14330.950000
4842.41    14033.170000
4844.05    13496.870000
4845.68    13612.650000
4847.32    13463.640000
4848.95    13416.620000
4850.59    13724.590000
4852.23    13697.040000
4853.86    13515.640000
4855.50    14111.010000
4857.14    14401.670000
4858.77    14243.090000
4860.41    14553.540000
4862.04    14563.860000
4863.68    14522.350000
4865.32    14499.420000
4866.95    14560.920000
4868.59    14222.750000
4870.23    13972.340000
4871.86    14273.880000
4873.50    14212.990000
4875.13    13905.770000
4876.77    14008.400000
4878.41    14057.380000
4880.04    14609.210000
4881.68    14762.530000
4883.31    14704.770000
4884.95    14422.450000
4886.59    14311.930000
4888.22    14573.090000
4889.86    14269.580000
4891.50    14112.710000
4893.13    14340.500000
4894.77    14336.710000
4896.40    14207.030000
4898.04    14052.750000
4899.68    13828.150000
4901.31    13915.600000
4902.95    14044.430000
4904.59    13940.340000
4906.22    14064.270000
4907.86    14193.330000
4909.49    14050.480000
4911.13    13864.170000
4912.77    13986.390000
4914.40    13814.010000
4916.04    14174.990000
4917.68    14139.030000
4919.31    13672.190000
4920.95    13283.150000
4922.58    12903.590000
4924.22    12751.330000
4925.86    12435.440000
4927.49    12238.080000
4929.13    12707.710000
4930.77    12459.530000
4932.40    12536.840000
4934.04    12437.520000
4935.67    12877.760000
4937.31    12782.130000
4938.95    12950.560000
4940.58    13653.820000
4942.22    13874.140000
4943.85    13860.090000
4945.49    13752.020000
4947.13    13882.100000
4948.76    13777.070000
4950.40    13464.730000
4952.04    13153.830000
4953.67    13506.360000
4955.31    13334.270000
4956.94    13506.140000
4958.58    14108.170000
4960.22    14237.670000
4961.85    14717.450000
4963.49    14733.830000
4965.12    14969.350000
4966.76    14766.810000
4968.40    14891.370000
4970.03    14696.830000
4971.67    15009.620000
4973.31    14618.230000
4974.94    14758.110000
4976.58    14370.670000
4978.22    14350.490000
4979.85    14222.120000
4981.49    13857.660000
4983.12    14131.210000
4984.76    14209.480000
4986.40    13142.230000
4988.03    13410.810000
4989.67    14011.960000
4991.31    13835.400000
4992.94    14464.800000
4994.58    14604.130000
4996.21    14658.480000
4997.85    14889.290000
4999.49    14837.150000
5001.12    14096.120000
5002.76    14359.800000
5004.39    13737.570000
5006.03    14365.090000
5007.67    14514.480000
5009.30    14807.170000
5010.94    15006.380000
5012.57    14794.430000
5014.21    15297.960000
5015.85    15251.320000
5017.48    15021.450000
5019.12    15189.780000
5020.76    14327.400000
5022.39    14675.050000
5024.03    14156.580000
5025.66    14307.450000
5027.30    14392.340000
5028.94    13820.640000
5030.57    14072.900000
5032.21    14246.820000
5033.85    14364.970000
5035.48    13977.700000
5037.12    13933.790000
5038.75    14250.540000
5040.39    14087.610000
5042.03    14182.410000
5043.66    14247.260000
5045.30    14044.900000
5046.94    13565.140000
5048.57    13513.380000
5050.21    13265.680000
5051.84    13214.030000
5053.48    13565.830000
5055.12    13328.980000
5056.75    13616.670000
5058.39    14018.500000
5060.02    13652.720000
5061.66    13704.950000
5063.30    13793.440000
5064.93    13317.940000
5066.57    13621.800000
5068.21    13526.630000
5069.84    13323.880000
5071.48    13091.200000
5073.11    12926.700000
5074.75    12943.070000
5076.39    12950.350000
5078.02    12953.820000
5079.66    12762.850000
5081.30    12553.950000
5082.93    12477.450000
5084.57    13012.720000
5086.20    13093.560000
5087.84    13228.560000
5089.48    13343.860000
5091.11    13230.480000
5092.75    13243.220000
5094.39    13554.330000
5096.02    13805.890000
5097.66    13662.090000
5099.29    13558.580000
5100.93    13424.890000
5102.57    13469.810000
5104.20    13685.400000
5105.84    13447.600000
5107.48    13177.490000
5109.11    12890.100000
5110.75    13109.190000
5112.38    13666.890000
5114.02    13573.210000
5115.66    13427.420000
5117.29    13606.900000
5118.93    13682.960000
5120.56    13834.470000
5122.20    13875.300000
5123.84    13836.940000
5125.47    14380.090000
5127.11    14736.210000
5128.75    14787.740000
5130.38    14485.700000
5132.02    14199.010000
5133.65    13991.850000
5135.29    13783.880000
5136.93    13819.820000
5138.56    13602.040000
5140.20    13397.740000
5141.84    14096.110000
5143.47    13749.250000
5145.11    13436.810000
5146.74    13373.620000
5148.38    12974.830000
5150.02    13016.880000
5151.65    13126.930000
5153.29    13446.860000
5154.93    13615.790000
5156.56    13613.280000
5158.20    14120.900000
5159.83    14117.870000
5161.47    14091.380000
5163.11    13821.100000
5164.74    13658.250000
5166.38    13877.360000
5168.02    13445.510000
5169.65    13237.180000
5171.29    13199.390000
5172.92    13268.430000
5174.56    13203.920000
5176.20    13619.130000
5177.83    13412.310000
5179.47    13400.410000
5181.10    13774.270000
5182.74    13678.680000
5184.38    14042.090000
5186.01    13688.320000
5187.65    13624.530000
5189.29    13554.080000
5190.92    13153.010000
5192.56    13198.530000
5194.19    12424.480000
5195.83    12829.680000
5197.47    12921.800000
5199.10    12963.260000
5200.74    13277.930000
5202.38    13065.080000
5204.01    12762.270000
5205.65    13169.050000
5207.28    13027.740000
5208.92    13438.990000
5210.56    13140.510000
5212.19    13240.250000
5213.83    13093.810000
5215.47    13105.460000
5217.10    12704.110000
5218.74    12710.170000
5220.37    12850.330000
5222.01    12928.480000
5223.65    13044.850000
5225.28    13084.970000
5226.92    13398.930000
5228.56    13344.910000
5230.19    13127.330000
5231.83    12547.050000
5233.46    12204.190000
5235.10    10932.830000
5236.73    10793.590000
5238.37    10706.840000
5240.01    10188.450000
5241.64    10301.340000
5243.28    10580.910000
5244.92    10813.090000
5246.55    10791.490000
5248.19    10727.940000
5249.82    10646.510000
5251.46    10901.320000
5253.10    10838.360000
5254.73    11230.360000
5256.37    11507.570000
5258.01    11772.010000
5259.64    12440.600000
5261.28    12971.760000
5262.91    12906.300000
5264.55    13004.400000
5266.19    13476.660000
5267.82    13275.440000
5269.46    13332.940000
5271.10    13635.730000
5272.73    13280.960000
5274.37    13133.310000
5276.00    12916.680000
5277.64    12573.990000
5279.28    12787.890000
5280.91    12988.230000
5282.55    13379.600000
5284.19    13750.570000
5285.82    13918.800000
5287.46    14483.370000
5289.09    14548.750000
5290.73    14464.770000
5292.37    14428.750000
5294.00    14102.460000
5295.64    13751.440000
